COUNTER,AF3,F7,F3, FC5, T7, P7, O1, O2,P8, T8, FC6, F4,F8, AF4,GYROX, GYROY, TIMESTAMP, FUNC_ID, FUNC_VALUE, MARKER, SYNC_SIGNAL
7,3873.33,4102.05,4222.56,4423.08,4591.28,4680,4478.97,4440,4168.72,4513.33,4895.9,4493.85,4405.64,4621.03,1702,1697,5.539,0,0,0,0
8,3862.05,4087.18,4208.72,4421.03,4574.36,4677.95,4476.41,4428.72,4168.72,4505.64,4872.82,4477.95,4394.87,4611.79,1701,1695,5.547,0,0,0,0
9,3863.08,4091.79,4208.21,4420,4584.62,4669.23,4477.95,4428.72,4165.64,4491.79,4857.44,4471.79,4390.77,4613.33,1701,1697,5.555,0,0,0,0
10,3866.67,4094.36,4214.87,4418.46,4566.67,4671.79,4478.97,4427.69,4152.82,4493.33,4876.92,4480,4401.03,4618.97,1701,1695,5.562,0,0,0,0
11,3858.46,4080,4205.13,4414.36,4533.33,4682.56,4474.36,4411.28,4133.33,4489.74,4873.33,4474.87,4391.28,4608.21,1700,1698,5.57,0,0,0,0
12,3857.44,4081.54,4199.49,4419.49,4554.87,4674.87,4471.28,4410.77,4136.41,4487.69,4857.44,4470.77,4380.51,4601.54,1702,1697,5.578,0,0,0,0
13,3869.74,4098.97,4213.33,4426.15,4570.77,4659.49,4474.87,4429.74,4154.87,4502.56,4874.36,4484.62,4396.41,4614.36,1701,1697,5.586,0,0,0,0
14,3873.33,4101.54,4217.44,4422.56,4529.74,4660.51,4478.97,4434.87,4162.05,4510.26,4888.72,4492.31,4407.18,4625.13,1702,1697,5.594,0,0,0,0
15,3866.15,4093.85,4212.31,4417.44,4512.31,4669.74,4478.97,4430.26,4158.97,4506.15,4876.92,4487.18,4397.95,4620.51,1701,1696,5.602,0,0,0,0
16,3866.67,4092.31,4217.44,4418.97,4527.69,4674.36,4479.49,4431.79,4154.36,4506.15,4874.87,4488.72,4396.92,4617.44,1702,1696,5.609,0,0,0,0
17,3870.26,4095.9,4219.49,4418.97,4518.97,4673.85,4478.97,4436.41,4157.95,4504.1,4884.1,4493.33,4401.03,4624.1,1701,1696,5.618,0,0,0,0
18,3868.21,4098.46,4214.87,4419.49,4510.26,4667.69,4477.95,4445.64,4173.85,4510.77,4890.26,4493.33,4403.08,4629.74,1703,1698,5.625,0,0,0,0
19,3866.15,4096.92,4216.41,4422.56,4527.69,4663.08,4475.38,4443.08,4175.38,4524.1,4894.87,4492.82,4409.23,4626.15,1702,1696,5.632,0,0,0,0
20,3864.1,4100,4211.79,4422.56,4534.36,4667.18,4469.74,4418.97,4150.26,4509.74,4884.62,4488.21,4402.56,4613.85,1703,1697,5.641,0,0,0,0
21,3863.59,4105.64,4206.67,4422.56,4511.79,4673.85,4471.28,4420.51,4148.72,4497.44,4875.38,4484.1,4393.33,4613.33,1704,1695,5.648,0,0,0,0
22,3868.21,4105.64,4215.9,4422.05,4478.46,4680,4478.97,4449.23,4178.46,4518.46,4887.18,4494.36,4407.69,4625.64,1704,1696,5.657,0,0,0,0
23,3865.13,4103.59,4217.44,4418.46,4491.79,4680.51,4478.97,4446.15,4175.38,4529.74,4896.41,4495.9,4420,4623.08,1705,1696,5.665,0,0,0,0
24,3853.85,4104.62,4205.64,4418.46,4547.69,4672.31,4473.85,4418.97,4147.18,4507.18,4878.97,4477.95,4402.05,4605.13,1704,1695,5.672,0,0,0,0
25,3856.41,4107.69,4207.69,4422.56,4542.05,4672.31,4474.87,4424.1,4153.33,4497.95,4869.74,4475.9,4394.87,4604.62,1706,1696,5.681,0,0,0,0
26,3866.67,4107.69,4213.85,4421.54,4478.97,4685.13,4478.97,4445.64,4174.36,4515.9,4887.69,4492.82,4415.38,4621.54,1706,1695,5.688,0,0,0,0
27,3864.1,4101.54,4208.72,4416.41,4470.77,4692.31,4479.49,4442.56,4166.67,4525.13,4896.41,4492.31,4422.05,4620.51,1706,1694,5.696,0,0,0,0
28,3860.51,4106.15,4208.72,4419.49,4526.15,4681.54,4476.41,4440,4165.13,4524.1,4893.85,4489.23,4415.9,4613.33,1707,1694,5.704,0,0,0,0
29,3871.79,4118.46,4219.49,4428.21,4554.36,4667.69,4478.46,4451.79,4179.49,4526.67,4898.97,4504.62,4416.92,4624.1,1708,1694,5.711,0,0,0,0
30,3874.87,4114.36,4223.59,4426.67,4512.31,4674.36,4488.72,4453.33,4176.41,4522.05,4898.97,4509.23,4416.92,4629.74,1708,1693,5.719,0,0,0,0
31,3863.59,4103.59,4216.92,4421.03,4481.03,4687.69,4493.85,4446.15,4172.31,4517.95,4888.21,4494.36,4409.74,4620,1708,1695,5.727,0,0,0,0
32,3860,4108.21,4211.28,4423.08,4508.72,4681.03,4490.26,4447.18,4176.92,4527.69,4889.74,4490.77,4409.23,4617.95,1708,1694,5.735,0,0,0,0
33,3857.44,4112.31,4203.59,4421.03,4525.64,4671.79,4487.69,4439.49,4162.56,4518.46,4891.79,4489.23,4404.1,4618.46,1707,1695,5.743,0,0,0,0
34,3846.67,4099.49,4194.36,4413.33,4487.18,4680.51,4491.28,4423.08,4142.56,4487.18,4871.28,4474.87,4388.72,4604.1,1709,1694,5.75,0,0,0,0
35,3841.54,4089.74,4195.38,4413.85,4479.49,4677.44,4494.36,4431.79,4150.26,4484.62,4862.05,4473.85,4387.18,4597.95,1707,1694,5.758,0,0,0,0
36,3850.77,4093.85,4206.15,4418.46,4517.95,4658.46,4493.85,4453.85,4169.23,4512.82,4882.56,4486.67,4397.95,4607.18,1708,1694,5.766,0,0,0,0
37,3857.44,4095.9,4205.64,4415.38,4510.26,4661.03,4491.28,4448.21,4169.23,4523.59,4890.26,4488.72,4401.54,4607.18,1707,1693,5.774,0,0,0,0
38,3852.31,4091.79,4196.92,4409.74,4474.87,4677.95,4489.23,4435.9,4163.08,4510.26,4876.92,4483.08,4393.85,4602.56,1707,1694,5.782,0,0,0,0
39,3854.36,4091.79,4201.54,4411.28,4471.28,4683.08,4492.31,4448.72,4168.21,4512.31,4882.05,4487.69,4399.49,4612.82,1706,1693,5.789,0,0,0,0
40,3857.44,4093.33,4205.13,4410.26,4497.44,4673.85,4494.36,4461.03,4175.9,4526.67,4898.46,4494.87,4410.77,4620,1706,1694,5.797,0,0,0,0
41,3849.23,4088.21,4198.46,4405.64,4520.51,4665.13,4491.28,4449.23,4168.72,4526.15,4895.38,4487.69,4404.1,4612.31,1706,1694,5.805,0,0,0,0
42,3850.77,4088.21,4203.59,4408.21,4506.15,4668.21,4489.23,4443.59,4165.64,4518.97,4888.72,4490.77,4398.97,4615.9,1705,1696,5.813,0,0,0,0
43,3860,4093.33,4211.79,4411.28,4471.28,4675.38,4492.31,4449.74,4172.82,4513.85,4889.74,4502.56,4401.54,4625.13,1705,1696,5.82,0,0,0,0
44,3860,4091.79,4208.21,4411.79,4466.15,4678.97,4489.23,4443.08,4170.26,4509.74,4889.74,4500.51,4401.03,4621.54,1703,1697,5.828,0,0,0,0
45,3858.97,4093.85,4206.15,4414.87,4501.03,4678.46,4479.49,4428.21,4163.59,4516.41,4891.79,4497.44,4404.1,4617.44,1704,1696,5.836,0,0,0,0
46,3863.08,4100,4209.74,4417.44,4514.36,4678.97,4474.36,4424.62,4166.15,4521.54,4889.74,4500.51,4406.67,4619.49,1702,1695,5.844,0,0,0,0
47,3862.56,4096.92,4210.26,4414.36,4485.13,4676.92,4482.05,4432.82,4170.77,4513.33,4881.03,4497.44,4398.97,4622.56,1701,1696,5.852,0,0,0,0
48,3856.41,4088.21,4208.21,4410.77,4463.59,4675.38,4491.79,4434.36,4165.64,4504.1,4876.92,4489.23,4389.74,4620.51,1701,1694,5.86,0,0,0,0
49,3850.26,4086.67,4205.64,4411.79,4482.56,4671.28,4487.18,4426.15,4154.36,4495.9,4874.36,4490.26,4381.54,4612.82,1700,1695,5.867,0,0,0,0
50,3848.21,4084.62,4205.13,4410.77,4505.13,4667.69,4481.03,4424.62,4149.23,4495.38,4871.28,4489.74,4377.44,4608.21,1701,1694,5.875,0,0,0,0
51,3851.28,4082.05,4210.26,4408.21,4483.08,4674.87,4484.1,4429.74,4153.33,4505.64,4877.44,4487.18,4390.26,4613.33,1701,1695,5.883,0,0,0,0
52,3857.95,4085.64,4216.92,4409.74,4454.87,4677.95,4489.23,4435.9,4156.41,4508.21,4888.72,4498.46,4401.54,4623.59,1700,1694,5.891,0,0,0,0
53,3865.13,4090.26,4217.44,4411.28,4469.74,4669.23,4492.82,4446.15,4151.79,4506.67,4894.36,4507.18,4400,4630.77,1700,1694,5.899,0,0,0,0
54,3861.54,4093.33,4213.85,4412.31,4493.33,4657.95,4485.64,4442.56,4138.46,4508.72,4886.15,4497.95,4397.44,4627.69,1701,1695,5.906,0,0,0,0
55,3853.33,4089.23,4207.69,4411.28,4475.38,4658.46,4478.97,4424.1,4126.15,4500,4873.33,4487.69,4390.77,4617.95,1701,1696,5.914,0,0,0,0
56,3849.74,4076.41,4198.97,4405.64,4450.77,4672.82,4485.64,4421.03,4121.54,4486.67,4868.72,4485.13,4383.59,4611.28,1702,1695,5.922,0,0,0,0
57,3848.21,4072.82,4192.82,4403.59,4480.51,4672.82,4485.13,4428.72,4124.1,4481.03,4866.67,4477.44,4383.08,4610.77,1702,1694,5.93,0,0,0,0
58,3852.82,4084.62,4197.44,4406.67,4511.28,4659.49,4477.95,4430.77,4132.82,4496.41,4868.72,4477.95,4393.33,4619.49,1701,1693,5.938,0,0,0,0
59,3860,4089.23,4206.15,4408.72,4487.18,4671.79,4486.15,4428.72,4138.97,4518.97,4875.38,4491.28,4398.97,4626.67,1702,1693,5.946,0,0,0,0
60,3857.95,4082.56,4203.59,4409.74,4461.54,4692.82,4500,4430.26,4137.95,4512.82,4875.9,4490.26,4394.36,4621.54,1701,1691,5.954,0,0,0,0
61,3852.31,4083.59,4196.92,4408.72,4490.26,4678.97,4492.82,4430.77,4136.92,4497.95,4877.95,4484.62,4394.87,4616.92,1700,1692,5.962,0,0,0,0
62,3856.41,4089.74,4200,4407.69,4528.72,4655.38,4478.46,4425.13,4132.31,4502.05,4881.54,4489.23,4396.92,4619.49,1701,1691,5.969,0,0,0,0
63,3856.92,4089.74,4208.21,4408.72,4509.74,4663.08,4484.1,4432.31,4135.38,4509.74,4874.87,4494.36,4390.77,4622.05,1700,1693,5.977,0,0,0,0
64,3851.79,4080,4207.69,4403.59,4468.72,4681.03,4494.36,4445.64,4149.74,4508.72,4874.36,4494.36,4392.82,4624.62,1701,1694,5.985,0,0,0,0
65,3851.28,4074.87,4198.97,4397.44,4476.41,4675.38,4485.13,4434.36,4145.64,4502.05,4881.54,4491.28,4399.49,4622.05,1699,1695,5.993,0,0,0,0
66,3850.77,4083.59,4198.46,4401.03,4523.08,4657.44,4469.23,4423.08,4131.79,4493.33,4876.41,4491.28,4393.85,4619.49,1701,1696,6.001,0,0,0,0
67,3860,4094.36,4215.9,4411.79,4538.97,4661.03,4478.97,4443.08,4146.15,4509.23,4884.1,4504.62,4401.03,4633.85,1700,1695,6.009,0,0,0,0
68,3868.72,4094.36,4223.08,4413.33,4520.51,4685.64,4493.85,4453.85,4161.03,4529.74,4902.05,4510.26,4421.54,4641.54,1700,1695,6.017,0,0,0,0
69,3860,4088.72,4208.21,4407.69,4530.26,4691.79,4485.64,4438.46,4153.85,4513.85,4897.95,4500.51,4419.49,4630.77,1701,1693,6.024,0,0,0,0
70,3859.49,4091.79,4207.69,4409.74,4554.87,4675.38,4478.46,4439.49,4154.87,4506.67,4886.67,4504.1,4410.77,4633.85,1701,1693,6.033,0,0,0,0
71,3869.23,4096.41,4217.95,4413.85,4542.05,4666.67,4487.18,4451.79,4160.51,4522.05,4882.56,4509.74,4406.15,4638.97,1701,1693,6.04,0,0,0,0
72,3863.59,4092.82,4210.26,4410.26,4531.79,4672.82,4488.72,4442.05,4147.18,4507.69,4874.36,4495.38,4392.31,4621.54,1700,1694,6.047,0,0,0,0
73,3856.41,4087.18,4207.18,4405.13,4566.67,4675.38,4474.87,4426.67,4138.97,4486.15,4870.26,4488.21,4389.74,4608.21,1701,1694,6.055,0,0,0,0
74,3867.18,4092.82,4220.51,4407.69,4578.46,4671.28,4478.46,4435.38,4150.26,4508.21,4886.15,4504.1,4410.26,4622.05,1700,1694,6.063,0,0,0,0
75,3877.44,4101.54,4229.74,4412.82,4552.82,4671.79,4492.82,4451.79,4158.46,4529.74,4894.87,4516.41,4417.95,4637.44,1701,1693,6.071,0,0,0,0
76,3869.74,4094.87,4225.13,4410.26,4562.56,4677.44,4487.69,4445.64,4151.79,4517.44,4881.03,4509.23,4394.87,4625.13,1701,1693,6.078,0,0,0,0
77,3864.1,4091.79,4218.97,4408.72,4587.18,4690.26,4482.56,4436.41,4148.72,4514.87,4877.95,4507.18,4382.56,4613.33,1701,1694,6.086,0,0,0,0
78,3870.26,4097.95,4214.87,4411.28,4571.28,4689.74,4492.31,4447.69,4154.87,4523.08,4892.82,4516.92,4394.87,4624.62,1701,1693,6.094,0,0,0,0
79,3867.18,4097.95,4212.31,4409.23,4564.1,4666.67,4487.18,4450.26,4147.18,4511.28,4889.23,4516.41,4393.33,4627.18,1701,1694,6.102,0,0,0,0
80,3856.41,4087.18,4205.13,4405.64,4579.49,4663.59,4474.87,4434.36,4133.33,4500,4872.31,4503.59,4373.33,4606.67,1703,1693,6.11,0,0,0,0
81,3856.92,4081.54,4199.49,4406.15,4572.31,4688.72,4483.59,4433.85,4137.95,4503.59,4871.28,4498.97,4370.77,4599.49,1702,1694,6.118,0,0,0,0
82,3867.69,4092.31,4209.74,4409.74,4577.95,4687.69,4492.82,4453.85,4153.33,4512.82,4876.92,4506.15,4386.15,4618.46,1702,1693,6.125,0,0,0,0
83,3875.9,4106.15,4221.54,4415.38,4611.79,4667.18,4491.28,4461.03,4160.51,4521.03,4883.59,4510.77,4396.92,4632.82,1702,1692,6.133,0,0,0,0
84,3869.74,4100,4216.92,4416.41,4597.95,4685.13,4490.77,4447.18,4154.87,4517.95,4890.77,4510.26,4400,4626.15,1702,1693,6.141,0,0,0,0
85,3854.36,4080.51,4205.13,4407.69,4548.21,4707.69,4489.23,4436.92,4138.46,4503.59,4882.56,4505.64,4394.36,4613.85,1701,1693,6.148,0,0,0,0
86,3855.9,4085.13,4203.08,4404.62,4571.79,4687.69,4484.62,4441.03,4135.9,4504.1,4871.79,4502.05,4386.15,4613.33,1703,1693,6.157,0,0,0,0
87,3870.77,4102.56,4213.33,4410.77,4628.21,4672.31,4488.21,4447.18,4157.44,4524.1,4881.54,4507.69,4397.44,4627.18,1702,1693,6.164,0,0,0,0
88,3871.79,4098.46,4217.44,4410.77,4605.13,4692.31,4492.82,4445.13,4160.51,4527.18,4896.41,4513.85,4413.85,4634.36,1703,1695,6.172,0,0,0,0
89,3862.56,4085.64,4209.74,4406.15,4568.72,4700.51,4490.77,4440.51,4133.33,4512.31,4891.79,4508.21,4407.18,4626.67,1703,1694,6.18,0,0,0,0
90,3867.18,4091.28,4213.85,4409.74,4606.15,4681.54,4491.28,4441.54,4135.38,4510.77,4883.59,4506.15,4398.46,4626.67,1703,1695,6.188,0,0,0,0
91,3877.95,4106.67,4227.18,4412.31,4626.67,4674.87,4492.31,4449.23,4171.79,4527.18,4890.26,4516.92,4405.64,4635.9,1704,1694,6.196,0,0,0,0
92,3872.82,4097.44,4221.54,4406.15,4574.36,4685.13,4488.72,4450.77,4171.28,4529.74,4892.82,4514.87,4404.62,4631.79,1704,1694,6.204,0,0,0,0
93,3860,4077.95,4202.05,4403.59,4570.77,4692.31,4477.95,4434.36,4132.82,4509.74,4872.82,4492.31,4383.59,4614.87,1704,1694,6.211,0,0,0,0
94,3856.41,4081.54,4193.85,4409.74,4624.62,4689.74,4473.85,4426.15,4125.64,4501.03,4858.46,4481.54,4370.77,4607.69,1702,1693,6.219,0,0,0,0
95,3863.08,4094.36,4202.05,4414.87,4616.41,4678.97,4482.56,4444.62,4153.33,4509.23,4872.31,4490.77,4381.03,4615.38,1704,1692,6.227,0,0,0,0
96,3863.59,4089.23,4206.67,4410.26,4575.38,4677.95,4484.1,4448.72,4155.9,4511.28,4882.56,4494.36,4387.18,4618.46,1702,1692,6.235,0,0,0,0
97,3856.92,4079.49,4202.05,4405.64,4581.54,4686.67,4474.87,4427.18,4136.41,4504.62,4874.36,4487.69,4377.95,4612.31,1702,1694,6.243,0,0,0,0
98,3859.49,4087.69,4204.1,4409.74,4611.79,4684.62,4472.82,4424.1,4134.87,4506.67,4871.79,4491.28,4378.97,4611.79,1702,1693,6.251,0,0,0,0
99,3861.03,4093.33,4203.59,4411.79,4610.26,4676.92,4474.87,4434.36,4146.15,4507.69,4872.31,4497.44,4386.15,4611.79,1702,1694,6.258,0,0,0,0
100,3847.18,4082.05,4192.31,4405.64,4587.18,4684.62,4472.82,4422.05,4139.49,4490.77,4857.95,4485.64,4372.31,4600,1702,1693,6.266,0,0,0,0
101,3841.54,4071.28,4188.21,4404.1,4593.85,4691.28,4471.79,4414.87,4127.18,4487.18,4853.33,4477.44,4364.1,4593.33,1700,1694,6.274,0,0,0,0
102,3851.79,4078.46,4197.44,4409.23,4616.92,4689.74,4473.33,4430.77,4132.82,4506.15,4872.31,4489.23,4380.51,4601.54,1701,1693,6.282,0,0,0,0
103,3854.87,4086.15,4203.08,4408.72,4601.03,4695.9,4473.85,4434.36,4145.13,4512.31,4882.56,4493.85,4390.26,4608.21,1700,1693,6.29,0,0,0,0
104,3853.85,4082.56,4203.08,4404.62,4571.79,4696.41,4473.85,4428.72,4151.79,4507.69,4871.79,4490.77,4380,4611.28,1700,1694,6.297,0,0,0,0
105,3860.51,4085.64,4206.15,4409.23,4592.31,4683.59,4473.85,4437.95,4156.41,4521.54,4872.31,4503.08,4378.46,4616.92,1700,1693,6.304,0,0,0,0
106,3862.05,4092.82,4210.77,4415.38,4620,4682.05,4473.85,4441.54,4155.9,4531.79,4889.23,4510.26,4391.28,4622.56,1700,1693,6.312,0,0,0,0
107,3851.79,4087.69,4206.15,4409.23,4606.67,4691.79,4472.31,4428.72,4145.64,4514.87,4888.21,4494.36,4388.21,4615.38,1700,1692,6.321,0,0,0,0
108,3848.72,4077.95,4200,4404.1,4577.44,4696.41,4473.33,4426.67,4137.95,4505.13,4874.36,4484.62,4375.38,4604.1,1701,1691,6.329,0,0,0,0
109,3854.87,4083.59,4204.1,4408.72,4579.49,4695.9,4476.41,4432.31,4140,4511.79,4875.9,4495.38,4380.51,4608.21,1701,1690,6.336,0,0,0,0
110,3857.44,4092.82,4207.18,4414.36,4623.08,4687.69,4474.36,4430.26,4141.03,4509.23,4880.51,4506.15,4389.74,4610.77,1701,1692,6.344,0,0,0,0
111,3854.36,4087.69,4204.62,4412.82,4626.67,4684.62,4472.31,4431.28,4145.13,4510.26,4877.44,4507.18,4384.1,4605.64,1700,1692,6.351,0,0,0,0
112,3853.33,4084.1,4204.62,4406.67,4577.44,4696.41,4476.92,4434.36,4149.74,4523.08,4878.46,4504.62,4380,4606.15,1701,1692,6.36,0,0,0,0
113,3859.49,4093.33,4208.72,4410.77,4577.95,4690.77,4474.36,4427.69,4143.08,4517.95,4877.95,4504.62,4382.56,4609.23,1701,1691,6.368,0,0,0,0
114,3860,4097.44,4208.72,4418.97,4627.69,4670.26,4468.72,4423.08,4133.33,4503.59,4875.38,4506.15,4380.51,4606.15,1701,1691,6.375,0,0,0,0
115,3852.31,4085.64,4203.59,4413.33,4618.46,4674.87,4474.87,4430.77,4138.46,4508.72,4875.9,4501.03,4377.95,4602.56,1701,1690,6.383,0,0,0,0
116,3853.33,4081.03,4204.62,4407.69,4565.13,4691.79,4481.03,4435.9,4145.13,4512.31,4869.74,4493.33,4375.9,4604.1,1702,1690,6.39,0,0,0,0
117,3856.41,4085.64,4207.69,4410.77,4568.72,4680.51,4474.87,4428.21,4136.41,4498.46,4867.18,4491.79,4374.87,4605.64,1700,1689,6.398,0,0,0,0
118,3850.26,4082.56,4203.59,4409.23,4606.67,4667.69,4468.21,4422.56,4125.64,4485.64,4866.67,4489.74,4371.28,4603.08,1701,1691,6.406,0,0,0,0
119,3854.87,4083.08,4203.59,4409.23,4606.67,4680,4477.95,4433.33,4136.41,4490.77,4860,4490.77,4366.15,4602.56,1701,1690,6.415,0,0,0,0
120,3866.15,4094.87,4215.38,4413.85,4575.9,4694.87,4488.72,4449.23,4155.38,4511.79,4868.72,4503.08,4379.49,4613.33,1699,1691,6.423,0,0,0,0
121,3863.08,4098.46,4214.36,4414.87,4586.15,4688.21,4482.56,4438.46,4151.28,4511.28,4881.03,4503.59,4387.18,4615.9,1700,1690,6.43,0,0,0,0
122,3854.87,4089.74,4201.03,4412.31,4624.62,4676.92,4469.23,4417.95,4139.49,4489.23,4872.31,4489.23,4373.85,4605.13,1700,1690,6.438,0,0,0,0
123,3863.08,4091.28,4209.23,4412.82,4602.56,4684.1,4474.87,4431.28,4150.77,4501.03,4876.92,4494.87,4381.03,4612.31,1700,1690,6.446,0,0,0,0
124,3880,4103.59,4224.1,4417.44,4561.03,4692.31,4486.67,4454.87,4164.1,4534.87,4902.05,4515.38,4410.26,4634.36,1700,1689,6.454,0,0,0,0
125,3877.44,4104.1,4215.38,4416.41,4580,4681.54,4478.46,4442.05,4150.77,4524.62,4890.77,4512.31,4402.05,4636.41,1700,1690,6.462,0,0,0,0
126,3862.05,4091.28,4201.03,4412.31,4613.85,4673.85,4465.64,4420,4139.49,4496.92,4864.1,4491.28,4374.36,4618.46,1701,1690,6.469,0,0,0,0
127,3860,4088.21,4202.56,4411.79,4603.59,4684.1,4469.23,4430.26,4154.87,4508.72,4875.9,4488.21,4381.03,4612.82,1701,1690,6.477,0,0,0,0
128,3869.23,4094.87,4208.21,4412.31,4582.56,4688.21,4475.9,4445.13,4160.51,4527.69,4893.85,4502.56,4396.92,4622.56,1701,1690,6.485,0,0,0,0
0,3873.85,4102.56,4210.77,4414.87,4577.95,4676.41,4481.54,4446.67,4156.92,4526.15,4891.79,4508.72,4394.36,4628.72,1701,1693,6.493,0,0,0,0
1,3870.77,4106.15,4212.82,4416.92,4589.74,4670.26,4485.13,4449.23,4164.62,4523.59,4889.74,4506.67,4391.79,4627.18,1701,1692,6.501,0,0,0,0
2,3864.1,4100,4208.72,4415.9,4606.67,4677.44,4478.97,4448.21,4166.15,4523.08,4888.21,4505.64,4389.74,4620.51,1700,1694,6.509,0,0,0,0
3,3858.97,4092.31,4201.54,4410.77,4593.33,4690.77,4477.95,4440,4153.33,4520,4882.56,4504.1,4383.59,4615.38,1702,1693,6.516,0,0,0,0
4,3864.1,4098.46,4201.54,4410.77,4576.41,4694.36,4486.67,4441.03,4147.69,4520.51,4886.15,4503.59,4383.08,4622.05,1701,1693,6.524,0,0,0,0
5,3870.77,4104.1,4210.26,4414.36,4588.72,4684.62,4483.59,4449.74,4155.38,4522.56,4895.9,4509.23,4388.21,4629.74,1702,1693,6.532,0,0,0,0
6,3863.59,4093.33,4210.26,4412.82,4589.74,4682.05,4473.85,4444.1,4157.44,4511.79,4885.64,4508.72,4380,4622.56,1702,1692,6.541,0,0,0,0
7,3858.46,4087.18,4204.62,4411.28,4590.26,4687.69,4471.79,4426.15,4140.51,4498.97,4869.23,4502.05,4369.23,4620.51,1702,1693,6.547,0,0,0,0
8,3869.23,4100,4210.26,4412.31,4601.54,4687.18,4478.97,4429.74,4132.31,4507.18,4879.49,4509.74,4376.92,4633.85,1703,1692,6.556,0,0,0,0
9,3875.38,4108.21,4216.41,4413.33,4591.28,4685.64,4488.21,4453.33,4157.95,4518.46,4894.36,4518.46,4385.13,4641.03,1703,1692,6.562,0,0,0,0
10,3871.28,4098.46,4210.77,4413.85,4578.97,4687.18,4487.69,4454.36,4169.74,4512.31,4887.18,4511.79,4377.95,4637.44,1702,1691,6.572,0,0,0,0
11,3869.74,4091.28,4206.67,4411.79,4587.18,4687.18,4480.51,4440.51,4152.31,4517.95,4885.13,4506.15,4378.46,4637.44,1703,1692,6.578,0,0,0,0
12,3871.28,4094.87,4209.74,4411.28,4583.59,4688.21,4479.49,4442.56,4149.23,4529.74,4894.87,4512.82,4386.15,4642.05,1703,1691,6.586,0,0,0,0
13,3865.64,4094.36,4204.1,4410.77,4585.13,4687.18,4476.92,4434.87,4146.67,4506.67,4880,4506.67,4374.36,4634.36,1702,1692,6.594,0,0,0,0
14,3856.92,4084.62,4193.33,4404.1,4590.77,4685.64,4471.28,4414.87,4135.38,4485.13,4860.51,4489.23,4360,4618.46,1703,1692,6.601,0,0,0,0
15,3856.92,4078.46,4193.85,4400,4572.82,4685.64,4471.28,4417.44,4136.92,4503.08,4863.08,4489.23,4363.59,4617.95,1702,1692,6.609,0,0,0,0
16,3863.59,4088.72,4200.51,4406.15,4575.9,4680,4471.79,4431.79,4141.03,4512.31,4875.9,4501.03,4373.85,4626.67,1703,1693,6.623,0,0,0,0
17,3863.08,4093.33,4200.51,4411.79,4588.21,4671.28,4472.31,4428.21,4133.85,4490.26,4877.44,4497.44,4374.87,4622.56,1702,1693,6.627,0,0,0,0
18,3854.36,4082.05,4193.85,4406.15,4562.56,4676.41,4472.31,4422.56,4132.31,4482.05,4865.13,4488.21,4365.64,4615.9,1701,1695,6.633,0,0,0,0
19,3854.36,4082.05,4196.41,4404.1,4554.36,4684.62,4473.85,4436.41,4143.59,4503.08,4864.1,4497.44,4366.67,4621.03,1702,1693,6.641,0,0,0,0
20,3859.49,4092.82,4206.15,4410.26,4587.69,4680.51,4476.92,4449.74,4151.28,4514.87,4875.9,4509.74,4377.95,4621.54,1701,1693,6.649,0,0,0,0
21,3853.85,4086.67,4203.08,4409.23,4586.67,4683.59,4475.9,4441.03,4145.64,4497.44,4877.44,4505.13,4375.38,4614.87,1701,1693,6.657,0,0,0,0
22,3850.77,4076.41,4195.9,4405.13,4555.38,4698.97,4475.9,4432.82,4143.59,4488.21,4871.79,4501.03,4371.79,4616.92,1700,1693,6.665,0,0,0,0
23,3861.54,4083.59,4204.62,4405.13,4550.77,4704.1,4479.49,4441.54,4154.36,4503.08,4874.87,4506.67,4382.05,4628.21,1701,1693,6.673,0,0,0,0
24,3869.74,4091.79,4214.36,4408.21,4567.18,4691.28,4476.92,4447.69,4161.54,4516.92,4883.59,4508.21,4389.74,4638.97,1700,1693,6.681,0,0,0,0
25,3869.74,4093.85,4213.33,4414.36,4589.74,4681.03,4475.38,4447.69,4167.18,4522.05,4891.28,4508.72,4386.67,4640,1701,1693,6.689,0,0,0,0
26,3867.69,4093.33,4212.31,4412.82,4587.18,4684.62,4484.62,4450.77,4175.38,4522.56,4889.74,4509.23,4380.51,4633.85,1700,1692,6.696,0,0,0,0
27,3858.46,4082.56,4204.1,4404.62,4565.64,4689.74,4492.31,4437.44,4155.9,4509.74,4876.41,4496.92,4370.77,4622.56,1701,1692,6.705,0,0,0,0
28,3853.33,4076.92,4196.92,4408.21,4570.77,4690.26,4497.95,4423.08,4132.31,4497.44,4870.26,4488.21,4365.64,4616.92,1701,1690,6.712,0,0,0,0
29,3860.51,4092.82,4207.18,4419.49,4592.31,4690.77,4514.87,4440.51,4151.79,4509.23,4878.46,4498.97,4374.87,4623.59,1700,1691,6.72,0,0,0,0
30,3865.13,4101.03,4214.87,4416.41,4577.44,4693.85,4529.23,4459.49,4174.87,4522.05,4886.67,4512.82,4383.59,4626.67,1701,1691,6.729,0,0,0,0
31,3854.87,4084.62,4202.56,4404.62,4559.49,4695.9,4517.95,4448.21,4159.49,4507.69,4881.03,4503.08,4376.41,4616.92,1700,1691,6.736,0,0,0,0
32,3848.72,4079.49,4194.87,4406.15,4582.05,4690.26,4501.03,4436.41,4144.62,4490.77,4869.74,4489.23,4369.74,4608.72,1700,1691,6.743,0,0,0,0
33,3857.95,4088.72,4205.13,4411.79,4583.08,4683.08,4503.08,4445.13,4160,4498.46,4869.74,4497.44,4377.44,4613.85,1700,1692,6.752,0,0,0,0
34,3860.51,4086.67,4208.21,4410.77,4550.77,4688.72,4507.18,4451.79,4168.21,4512.31,4876.92,4509.74,4383.08,4621.03,1701,1692,6.759,0,0,0,0
35,3854.87,4081.54,4201.54,4409.23,4547.69,4698.46,4494.87,4441.03,4154.36,4509.74,4881.03,4506.15,4384.1,4621.54,1700,1692,6.767,0,0,0,0
36,3857.44,4087.69,4202.05,4408.72,4580.51,4686.67,4485.13,4433.33,4153.85,4511.28,4889.23,4505.13,4391.28,4624.1,1701,1691,6.774,0,0,0,0
37,3867.69,4097.44,4213.85,4410.77,4588.21,4676.92,4497.95,4446.15,4170.26,4525.64,4900,4522.05,4401.03,4633.85,1700,1693,6.783,0,0,0,0
38,3872.31,4096.92,4220.51,4412.31,4556.92,4696.92,4506.67,4454.87,4170.26,4525.13,4899.49,4528.72,4403.08,4637.95,1701,1692,6.791,0,0,0,0
39,3864.62,4090.26,4209.74,4410.77,4567.18,4704.1,4488.72,4438.46,4152.82,4511.79,4893.33,4513.85,4397.95,4629.74,1701,1694,6.799,0,0,0,0
40,3859.49,4090.77,4202.05,4409.23,4606.67,4680,4475.38,4431.28,4148.72,4506.67,4890.26,4504.1,4394.87,4625.13,1701,1693,6.806,0,0,0,0
41,3862.05,4088.72,4201.54,4407.18,4577.95,4674.36,4486.67,4445.64,4154.87,4509.23,4890.77,4507.69,4395.9,4628.72,1700,1693,6.814,0,0,0,0
42,3862.56,4077.95,4200.51,4402.05,4527.18,4690.26,4495.9,4448.72,4154.36,4514.87,4889.74,4510.26,4396.92,4631.28,1700,1692,6.821,0,0,0,0
43,3864.62,4076.41,4203.59,4400,4544.62,4685.64,4486.67,4442.05,4153.85,4526.67,4893.85,4507.18,4400,4634.87,1698,1692,6.829,0,0,0,0
44,3863.59,4080.51,4202.05,4399.49,4570.77,4665.64,4477.44,4443.59,4154.36,4524.1,4896.92,4504.62,4398.97,4632.31,1699,1691,6.837,0,0,0,0
45,3856.92,4077.44,4192.31,4397.95,4558.46,4657.95,4475.9,4447.18,4153.33,4506.67,4886.15,4505.13,4388.72,4626.67,1697,1689,6.845,0,0,0,0
46,3856.41,4074.87,4193.85,4396.92,4544.62,4666.67,4476.41,4443.59,4155.38,4507.18,4879.49,4506.67,4382.56,4627.18,1699,1690,6.854,0,0,0,0
47,3851.79,4071.79,4195.9,4390.77,4538.46,4671.28,4476.92,4434.36,4150.26,4511.79,4878.97,4496.92,4380.51,4622.56,1699,1689,6.86,0,0,0,0
48,3840.51,4063.59,4186.15,4384.1,4546.67,4664.1,4476.41,4427.18,4139.49,4494.87,4867.18,4483.59,4373.85,4606.67,1698,1691,6.868,0,0,0,0
49,3838.97,4060.51,4185.13,4386.15,4558.97,4661.54,4474.87,4422.05,4135.9,4482.05,4856.92,4483.59,4371.28,4602.56,1700,1691,6.877,0,0,0,0
50,3845.13,4063.08,4191.79,4388.21,4542.56,4668.21,4475.9,4419.49,4137.44,4489.74,4867.18,4490.26,4377.44,4613.85,1699,1692,6.885,0,0,0,0
51,3849.74,4066.15,4196.92,4388.21,4531.79,4668.72,4475.38,4423.08,4140,4495.9,4880,4496.92,4382.56,4614.87,1700,1692,6.893,0,0,0,0
52,3851.28,4069.74,4196.92,4385.13,4551.28,4660,4470.77,4430.77,4140,4491.28,4874.87,4501.03,4381.03,4607.18,1700,1692,6.9,0,0,0,0
53,3849.23,4066.67,4190.77,4383.59,4552.31,4652.31,4467.69,4427.69,4136.92,4488.72,4862.56,4493.33,4374.36,4603.59,1701,1691,6.907,0,0,0,0
54,3847.18,4066.15,4189.74,4385.64,4541.54,4657.44,4469.74,4418.46,4135.38,4487.18,4858.97,4487.69,4373.85,4600.51,1699,1692,6.916,0,0,0,0
55,3848.72,4073.33,4195.9,4384.62,4549.23,4673.85,4472.31,4419.49,4137.44,4489.74,4864.62,4492.31,4379.49,4599.49,1701,1692,6.923,0,0,0,0
56,3852.82,4075.38,4198.46,4385.64,4555.38,4681.54,4474.87,4428.72,4141.03,4502.56,4874.87,4496.41,4385.13,4603.59,1700,1692,6.931,0,0,0,0
57,3851.79,4073.33,4194.36,4388.21,4566.15,4669.23,4476.92,4432.82,4144.1,4510.77,4876.92,4494.36,4385.13,4601.54,1701,1694,6.939,0,0,0,0
58,3846.15,4069.23,4190.77,4384.62,4584.62,4654.87,4475.38,4427.18,4144.62,4492.82,4860.51,4486.67,4377.44,4588.21,1700,1692,6.946,0,0,0,0
59,3844.62,4067.18,4188.72,4378.46,4564.62,4667.18,4475.38,4421.03,4137.44,4477.95,4845.64,4476.92,4371.28,4582.05,1700,1693,6.954,0,0,0,0
60,3844.62,4067.69,4186.67,4380,4543.08,4684.1,4476.92,4417.44,4125.13,4478.46,4840.51,4474.36,4368.21,4581.03,1702,1692,6.962,0,0,0,0
61,3838.97,4069.23,4187.69,4382.56,4580,4669.74,4474.36,4414.87,4116.92,4467.18,4837.95,4475.9,4361.54,4574.36,1700,1693,6.971,0,0,0,0
62,3832.31,4066.15,4187.18,4375.9,4587.18,4660,4471.28,4413.85,4119.49,4460,4837.95,4472.82,4362.05,4570.77,1702,1693,6.978,0,0,0,0
63,3841.03,4065.64,4187.69,4374.36,4535.9,4672.31,4473.33,4413.33,4123.08,4475.9,4845.64,4474.87,4375.9,4578.46,1702,1693,6.987,0,0,0,0
64,3850.77,4073.85,4189.74,4383.08,4528.72,4671.28,4475.38,4415.9,4121.54,4482.05,4855.38,4485.64,4385.64,4586.67,1701,1692,6.994,0,0,0,0
65,3852.82,4081.03,4196.41,4389.74,4579.49,4660,4468.72,4416.92,4125.64,4473.33,4857.95,4489.23,4385.13,4587.18,1701,1692,7.001,0,0,0,0
66,3857.95,4085.13,4204.62,4390.26,4598.46,4668.21,4465.13,4417.44,4135.38,4481.54,4857.44,4490.77,4390.26,4591.28,1701,1693,7.009,0,0,0,0
67,3857.95,4083.59,4205.64,4386.15,4555.9,4678.97,4472.31,4426.67,4142.56,4496.92,4862.05,4495.9,4397.44,4598.46,1700,1692,7.017,0,0,0,0
68,3855.38,4082.05,4202.05,4385.64,4530.77,4671.28,4471.28,4430.77,4140,4494.87,4871.28,4497.44,4401.54,4600,1700,1693,7.025,0,0,0,0
69,3864.62,4088.72,4204.62,4391.28,4564.62,4663.59,4459.49,4420.51,4130.26,4489.23,4875.9,4501.03,4410.26,4608.72,1701,1692,7.033,0,0,0,0
70,3871.79,4092.31,4210.77,4392.31,4582.05,4664.1,4457.95,4415.38,4134.36,4491.79,4876.41,4508.21,4413.33,4617.95,1700,1692,7.04,0,0,0,0
71,3865.13,4089.23,4208.72,4387.69,4555.38,4665.64,4462.05,4418.97,4142.05,4494.36,4873.85,4507.69,4404.1,4613.85,1701,1691,7.048,0,0,0,0
72,3862.05,4089.23,4203.59,4388.72,4549.23,4665.64,4457.95,4412.82,4128.72,4494.87,4872.31,4503.08,4405.13,4608.72,1701,1692,7.056,0,0,0,0
73,3861.03,4084.1,4200,4390.26,4565.13,4673.85,4456.41,4404.62,4109.74,4493.85,4876.92,4501.54,4413.85,4608.72,1702,1693,7.065,0,0,0,0
74,3854.87,4074.36,4195.9,4386.67,4563.08,4680,4468.21,4416.92,4117.44,4486.67,4875.38,4501.03,4409.23,4606.15,1700,1693,7.072,0,0,0,0
75,3856.41,4082.56,4198.46,4389.74,4553.85,4662.56,4471.79,4432.82,4136.41,4487.69,4871.28,4505.13,4405.13,4611.28,1701,1693,7.079,0,0,0,0
76,3861.03,4092.31,4203.59,4392.31,4545.13,4652.31,4463.59,4429.23,4138.97,4495.38,4873.33,4508.72,4411.28,4618.97,1701,1692,7.087,0,0,0,0
77,3857.95,4082.05,4199.49,4388.72,4545.13,4666.15,4465.13,4422.05,4135.38,4493.33,4872.31,4503.08,4410.77,4613.33,1700,1691,7.095,0,0,0,0
78,3858.46,4077.95,4197.44,4390.77,4569.74,4668.72,4473.33,4427.69,4137.95,4494.87,4874.36,4502.56,4410.26,4612.82,1700,1690,7.103,0,0,0,0
79,3866.67,4089.23,4206.15,4395.38,4578.46,4660.51,4474.87,4432.82,4142.05,4507.18,4887.69,4507.69,4421.54,4625.13,1700,1690,7.111,0,0,0,0
80,3866.15,4092.82,4207.69,4391.28,4550.77,4667.69,4470.26,4431.28,4140.51,4511.79,4890.26,4507.18,4424.1,4626.15,1701,1689,7.118,0,0,0,0
81,3865.64,4086.67,4202.56,4389.74,4547.18,4674.87,4466.15,4429.74,4134.87,4503.08,4876.41,4501.54,4415.9,4620.51,1699,1691,7.126,0,0,0,0
82,3867.69,4084.1,4203.08,4391.79,4575.9,4664.1,4461.03,4428.72,4133.33,4492.82,4868.72,4500.51,4411.28,4617.95,1701,1689,7.134,0,0,0,0
83,3862.05,4081.54,4204.62,4388.21,4561.54,4654.87,4457.95,4427.69,4133.85,4488.72,4870.26,4498.97,4407.69,4613.33,1700,1690,7.142,0,0,0,0
84,3857.95,4080.51,4203.08,4387.69,4534.87,4657.44,4460,4429.23,4141.54,4498.97,4873.33,4497.44,4406.67,4610.26,1701,1690,7.151,0,0,0,0
85,3857.44,4085.64,4198.46,4390.77,4552.82,4662.05,4459.49,4428.21,4143.08,4509.74,4879.49,4499.49,4412.82,4612.31,1700,1690,7.158,0,0,0,0
86,3858.97,4089.74,4198.46,4389.74,4559.49,4669.23,4465.13,4426.15,4131.28,4501.54,4876.41,4502.56,4413.33,4613.85,1700,1692,7.166,0,0,0,0
87,3862.05,4091.28,4206.67,4389.23,4558.46,4662.05,4471.79,4426.15,4124.1,4485.64,4864.1,4503.08,4404.1,4611.79,1700,1690,7.173,0,0,0,0
88,3862.56,4093.33,4210.77,4391.79,4581.54,4647.18,4471.28,4428.72,4130.26,4488.21,4866.15,4502.56,4405.13,4612.82,1700,1691,7.181,0,0,0,0
89,3863.08,4096.41,4211.28,4393.85,4568.21,4654.36,4471.28,4430.77,4138.46,4502.56,4877.95,4508.72,4414.87,4617.44,1700,1690,7.189,0,0,0,0
90,3863.08,4094.87,4210.77,4391.79,4534.36,4663.59,4476.92,4431.28,4140,4502.56,4878.46,4510.77,4414.36,4617.44,1700,1691,7.197,0,0,0,0
91,3861.03,4090.77,4205.64,4387.69,4544.1,4652.82,4471.28,4427.69,4136.41,4487.69,4866.15,4500.51,4402.56,4607.18,1700,1691,7.205,0,0,0,0
92,3861.03,4091.79,4202.56,4388.21,4566.67,4646.67,4459.49,4424.1,4134.36,4481.54,4858.46,4494.36,4392.82,4600,1700,1690,7.211,0,0,0,0
93,3862.05,4095.9,4204.62,4390.26,4574.36,4657.44,4464.62,4426.15,4145.13,4489.74,4860.51,4502.56,4396.92,4604.62,1700,1689,7.22,0,0,0,0
94,3862.56,4097.44,4205.13,4391.79,4561.03,4666.67,4469.23,4430.77,4153.85,4497.95,4866.67,4510.77,4407.18,4614.36,1700,1690,7.227,0,0,0,0
95,3859.49,4091.28,4203.59,4391.28,4543.59,4664.62,4458.46,4422.05,4135.38,4488.21,4864.62,4504.62,4401.03,4609.74,1700,1690,7.236,0,0,0,0
96,3856.92,4092.31,4203.59,4393.33,4575.9,4653.85,4452.82,4414.87,4118.97,4473.33,4854.36,4501.03,4389.23,4602.05,1699,1691,7.244,0,0,0,0
97,3861.03,4100.51,4208.21,4396.41,4595.38,4650.77,4462.56,4426.15,4131.79,4480.51,4858.46,4507.18,4393.33,4609.74,1700,1691,7.251,0,0,0,0
98,3861.03,4094.36,4208.72,4392.31,4542.05,4666.15,4466.67,4431.79,4141.03,4495.38,4872.82,4508.21,4401.03,4619.49,1700,1691,7.259,0,0,0,0
99,3858.97,4088.72,4205.13,4388.72,4523.59,4677.95,4462.05,4422.05,4134.87,4492.82,4873.85,4508.72,4398.97,4616.92,1699,1690,7.267,0,0,0,0
100,3865.13,4100.51,4205.13,4390.77,4583.08,4670.77,4465.13,4425.13,4141.03,4488.21,4866.15,4512.82,4398.97,4614.36,1699,1692,7.275,0,0,0,0
101,3873.33,4108.72,4209.74,4392.82,4596.92,4662.56,4472.82,4437.44,4155.9,4500.51,4873.33,4515.9,4406.67,4620,1701,1691,7.283,0,0,0,0
102,3866.15,4096.41,4208.72,4392.31,4547.18,4670.26,4475.38,4433.85,4158.97,4505.64,4877.95,4511.28,4403.08,4614.87,1699,1691,7.291,0,0,0,0
103,3851.28,4083.08,4196.41,4389.74,4541.03,4673.33,4468.21,4425.13,4152.82,4490.77,4858.97,4498.46,4387.18,4600,1700,1692,7.298,0,0,0,0
104,3853.33,4084.62,4192.31,4388.72,4561.54,4665.13,4464.62,4426.15,4149.74,4488.21,4852.31,4495.9,4383.08,4598.97,1700,1691,7.306,0,0,0,0
105,3864.62,4091.79,4201.03,4389.74,4548.72,4664.1,4470.26,4429.23,4153.33,4505.13,4871.79,4507.18,4400.51,4612.82,1699,1692,7.314,0,0,0,0
106,3866.67,4093.33,4205.13,4389.74,4538.97,4669.74,4473.33,4427.69,4154.36,4513.85,4883.08,4512.31,4412.82,4618.97,1700,1691,7.322,0,0,0,0
107,3865.64,4093.85,4204.1,4389.74,4550.26,4670.77,4470.26,4424.62,4150.26,4505.13,4877.95,4507.69,4410.77,4617.95,1700,1691,7.33,0,0,0,0
108,3865.64,4100,4204.62,4391.28,4569.74,4667.69,4468.72,4425.64,4148.72,4492.82,4873.85,4505.64,4409.74,4620.51,1701,1690,7.337,0,0,0,0
109,3866.67,4106.67,4206.67,4394.36,4589.23,4665.13,4473.85,4428.21,4153.33,4488.72,4871.28,4506.15,4411.28,4622.05,1700,1691,7.344,0,0,0,0
110,3868.21,4103.08,4209.74,4393.85,4571.28,4667.18,4476.92,4428.72,4155.38,4503.59,4875.38,4508.21,4413.85,4621.54,1701,1690,7.353,0,0,0,0
111,3858.97,4090.26,4204.62,4388.72,4533.85,4673.85,4470.77,4418.46,4143.59,4507.69,4873.85,4504.62,4408.72,4613.85,1701,1692,7.361,0,0,0,0
112,3851.28,4084.62,4194.87,4389.23,4542.56,4677.95,4462.56,4410.77,4137.44,4488.72,4860.51,4496.41,4400.51,4605.13,1702,1691,7.369,0,0,0,0
113,3861.54,4096.92,4201.03,4393.33,4562.05,4683.08,4467.18,4425.13,4156.92,4489.74,4864.62,4503.08,4406.67,4613.33,1700,1691,7.376,0,0,0,0
114,3873.33,4109.23,4216.41,4396.41,4559.49,4687.69,4475.9,4437.95,4168.21,4505.13,4878.97,4511.79,4416.41,4626.15,1701,1691,7.384,0,0,0,0
115,3871.79,4108.72,4216.41,4402.56,4570.26,4678.97,4472.31,4430.26,4152.31,4505.64,4877.44,4511.28,4418.97,4629.74,1701,1690,7.392,0,0,0,0
116,3870.77,4106.15,4212.31,4404.1,4568.72,4675.38,4468.21,4426.15,4147.18,4503.59,4877.95,4516.41,4423.59,4630.26,1700,1691,7.4,0,0,0,0
117,3872.82,4100.51,4213.33,4395.38,4531.79,4684.1,4469.23,4431.79,4156.92,4498.97,4878.97,4518.97,4422.56,4626.15,1700,1690,7.408,0,0,0,0
118,3863.08,4093.33,4206.67,4388.21,4529.74,4680.51,4462.56,4421.03,4154.87,4481.03,4863.59,4505.64,4409.74,4613.85,1699,1692,7.416,0,0,0,0
119,3855.9,4100.51,4202.56,4393.85,4580,4670.77,4460.51,4413.85,4149.74,4482.05,4861.03,4502.56,4409.74,4610.26,1700,1691,7.422,0,0,0,0
120,3865.13,4111.28,4211.28,4398.46,4590.77,4672.31,4469.74,4425.64,4150.77,4505.64,4881.54,4520.51,4429.74,4624.1,1699,1692,7.43,0,0,0,0
121,3873.33,4105.13,4217.95,4393.85,4536.41,4685.13,4476.41,4434.87,4159.49,4516.41,4895.38,4529.23,4443.59,4635.38,1699,1691,7.438,0,0,0,0
122,3866.15,4092.31,4212.31,4391.28,4521.03,4686.15,4475.38,4429.23,4167.18,4506.67,4887.18,4519.49,4434.87,4629.23,1698,1691,7.446,0,0,0,0
123,3853.33,4092.31,4201.54,4393.85,4572.82,4670.26,4471.28,4423.08,4158.46,4492.82,4870.26,4506.67,4415.9,4614.36,1700,1691,7.455,0,0,0,0
124,3852.82,4090.77,4196.92,4392.82,4571.79,4666.15,4471.79,4422.05,4143.59,4489.74,4867.18,4502.56,4410.26,4612.31,1699,1691,7.463,0,0,0,0
125,3856.41,4079.49,4195.38,4385.64,4522.05,4667.69,4473.85,4422.05,4144.1,4492.31,4869.74,4496.92,4410.26,4615.9,1699,1692,7.47,0,0,0,0
126,3853.85,4083.59,4193.85,4387.69,4537.95,4659.49,4471.79,4419.49,4154.36,4490.26,4862.05,4489.23,4403.08,4612.31,1699,1691,7.478,0,0,0,0
127,3853.85,4093.33,4193.33,4393.33,4567.69,4655.9,4466.67,4415.9,4152.31,4484.62,4856.92,4491.28,4403.08,4612.31,1700,1692,7.485,0,0,0,0
128,3851.79,4081.03,4187.69,4386.15,4525.13,4661.54,4464.62,4414.87,4140,4481.03,4861.54,4493.33,4406.67,4610.77,1700,1691,7.494,0,0,0,0
0,3840,4067.69,4177.44,4377.95,4500.51,4655.9,4460,4409.23,4132.31,4474.36,4852.31,4482.56,4394.36,4596.92,1699,1691,7.502,0,0,0,0
1,3834.36,4070.26,4171.79,4379.49,4556.92,4636.92,4446.67,4403.08,4134.36,4461.54,4833.33,4467.18,4379.49,4583.08,1700,1691,7.51,0,0,0,0
2,3836.92,4067.69,4170.26,4380,4566.15,4638.97,4444.62,4404.62,4135.38,4460.51,4833.85,4458.97,4381.03,4581.03,1699,1691,7.517,0,0,0,0
3,3835.9,4061.54,4171.28,4378.46,4505.64,4657.95,4455.38,4401.03,4135.38,4464.62,4844.1,4462.56,4385.64,4583.08,1699,1691,7.524,0,0,0,0
4,3834.36,4064.1,4176.92,4377.95,4489.74,4657.44,4458.97,4397.44,4136.41,4460.51,4844.62,4471.79,4386.15,4587.18,1698,1692,7.533,0,0,0,0
5,3834.36,4064.62,4179.49,4377.44,4525.13,4631.79,4454.36,4405.64,4134.36,4464.62,4840,4475.9,4389.23,4591.28,1699,1691,7.541,0,0,0,0
6,3834.87,4062.56,4180,4381.03,4539.49,4625.13,4457.95,4412.82,4135.38,4474.87,4841.54,4476.92,4389.23,4589.74,1697,1690,7.55,0,0,0,0
7,3833.33,4066.67,4179.49,4383.59,4519.49,4641.54,4463.08,4407.18,4135.38,4468.21,4846.67,4474.87,4387.69,4587.18,1698,1690,7.557,0,0,0,0
8,3829.23,4066.67,4174.36,4380.51,4509.74,4637.44,4453.85,4395.38,4122.05,4451.79,4838.46,4464.62,4385.64,4586.15,1698,1688,7.565,0,0,0,0
9,3829.74,4062.05,4173.33,4378.97,4510.77,4631.28,4447.69,4391.28,4115.9,4450.77,4831.79,4461.54,4386.15,4586.15,1697,1690,7.572,0,0,0,0
10,3834.87,4068.72,4180,4381.03,4506.67,4643.59,4456.92,4398.46,4132.82,4466.15,4848.21,4476.41,4400,4596.92,1697,1690,7.58,0,0,0,0
11,3835.9,4075.9,4185.64,4382.56,4525.64,4642.56,4462.56,4402.56,4146.15,4478.46,4862.05,4483.59,4411.79,4605.64,1697,1691,7.588,0,0,0,0
12,3825.64,4066.15,4178.97,4378.97,4546.15,4630.26,4458.46,4400,4142.56,4473.33,4847.69,4472.82,4397.44,4594.87,1697,1690,7.596,0,0,0,0
13,3820,4054.87,4171.79,4375.38,4518.46,4632.31,4460,4409.23,4150.77,4464.1,4833.33,4466.67,4381.03,4582.05,1697,1689,7.604,0,0,0,0
14,3828.21,4057.95,4178.97,4377.95,4486.15,4635.9,4464.1,4420.51,4167.18,4478.46,4843.59,4477.44,4392.82,4590.77,1697,1689,7.612,0,0,0,0
15,3832.82,4061.03,4184.62,4380,4511.28,4632.31,4460,4416.92,4164.1,4493.85,4860,4486.67,4406.67,4600.51,1697,1689,7.618,0,0,0,0
16,3825.13,4053.85,4177.95,4374.36,4526.67,4638.97,4457.44,4413.85,4151.79,4481.03,4858.97,4479.49,4397.95,4591.28,1697,1689,7.627,0,0,0,0
17,3818.97,4048.72,4171.79,4370.77,4511.79,4642.56,4458.97,4410.77,4151.79,4471.28,4847.69,4470.77,4390.26,4583.08,1698,1689,7.635,0,0,0,0
18,3823.59,4049.74,4173.85,4372.82,4507.18,4637.95,4460,4402.05,4152.82,4477.44,4843.08,4474.36,4393.85,4587.18,1701,1689,7.641,0,0,0,0
19,3827.18,4052.82,4177.95,4375.38,4497.95,4633.85,4454.36,4397.44,4144.1,4470.77,4844.62,4477.44,4393.85,4588.72,1700,1689,7.649,0,0,0,0
20,3823.08,4050.26,4177.44,4371.79,4496.41,4622.56,4446.15,4392.31,4134.87,4455.38,4844.1,4472.31,4388.21,4584.1,1701,1688,7.657,0,0,0,0
21,3820.51,4044.1,4173.33,4368.21,4506.15,4621.03,4444.1,4385.64,4134.36,4454.87,4840.51,4466.67,4385.13,4582.05,1700,1687,7.667,0,0,0,0
22,3820.51,4045.64,4173.85,4370.26,4497.95,4630.26,4445.13,4385.64,4138.46,4461.03,4832.31,4462.05,4381.54,4584.1,1701,1687,7.674,0,0,0,0
23,3821.54,4050.77,4175.9,4372.31,4483.08,4628.72,4444.1,4386.15,4135.38,4459.49,4826.15,4459.49,4383.08,4584.1,1699,1688,7.683,0,0,0,0
24,3820,4050.77,4171.28,4365.64,4484.62,4622.05,4441.54,4378.97,4124.62,4450.77,4828.21,4458.97,4384.62,4576.41,1700,1688,7.689,0,0,0,0
25,3817.44,4050.26,4169.23,4357.44,4495.38,4618.97,4440,4375.38,4123.59,4441.03,4826.15,4455.38,4376.92,4571.28,1698,1688,7.697,0,0,0,0
26,3820.51,4055.38,4175.9,4354.36,4489.74,4611.79,4442.05,4387.18,4134.87,4443.59,4825.13,4457.95,4377.95,4580.51,1699,1689,7.704,0,0,0,0
27,3820,4054.36,4176.41,4351.79,4465.64,4614.36,4446.67,4397.44,4138.46,4452.82,4830.77,4462.05,4384.1,4584.62,1700,1689,7.713,0,0,0,0
28,3810.26,4048.72,4170.26,4348.72,4451.79,4628.21,4447.18,4392.31,4134.36,4449.23,4825.13,4452.82,4367.69,4569.23,1698,1691,7.721,0,0,0,0
29,3812.82,4048.72,4170.77,4350.26,4466.67,4626.15,4444.1,4385.13,4133.85,4441.54,4818.97,4448.21,4361.54,4565.64,1700,1691,7.728,0,0,0,0
30,3824.1,4050.77,4175.9,4349.23,4477.44,4619.49,4444.1,4389.23,4135.38,4446.67,4827.18,4458.97,4384.1,4581.54,1699,1692,7.735,0,0,0,0
31,3821.03,4046.15,4175.9,4346.67,4471.79,4626.15,4446.15,4397.95,4145.13,4460.51,4834.87,4464.62,4394.36,4584.1,1700,1693,7.743,0,0,0,0
32,3812.82,4038.46,4168.72,4349.23,4459.49,4642.05,4448.21,4400.51,4152.82,4463.08,4832.31,4459.49,4382.05,4572.31,1700,1692,7.751,0,0,0,0
33,3812.82,4036.92,4163.08,4350.77,4453.33,4651.28,4445.64,4391.28,4143.08,4449.23,4826.15,4454.36,4374.87,4566.15,1700,1693,7.76,0,0,0,0
34,3817.95,4045.13,4170.26,4350.77,4461.54,4637.44,4441.03,4383.08,4134.36,4450.77,4826.67,4455.9,4383.08,4573.33,1700,1693,7.768,0,0,0,0
35,3821.03,4051.79,4176.41,4350.77,4457.44,4618.46,4441.54,4391.28,4140.51,4464.62,4831.28,4465.64,4393.85,4583.08,1701,1692,7.775,0,0,0,0
36,3823.59,4051.79,4174.36,4351.79,4447.18,4615.9,4442.56,4400,4143.08,4462.56,4832.82,4469.74,4392.31,4580,1700,1691,7.783,0,0,0,0
37,3825.13,4051.79,4175.9,4354.87,4455.38,4622.56,4449.23,4402.56,4140,4456.41,4830.26,4462.05,4389.23,4572.31,1700,1692,7.791,0,0,0,0
38,3823.08,4047.18,4173.85,4353.33,4459.49,4620.51,4456.41,4402.56,4139.49,4456.41,4828.21,4456.92,4392.82,4569.23,1701,1690,7.8,0,0,0,0
39,3820,4040.51,4166.67,4347.69,4453.85,4615.38,4449.23,4390.77,4135.38,4449.23,4825.64,4456.92,4390.77,4562.56,1700,1691,7.807,0,0,0,0
40,3817.44,4044.62,4166.15,4346.67,4461.54,4618.46,4441.54,4380.51,4133.33,4442.56,4826.15,4457.44,4381.54,4554.87,1701,1690,7.815,0,0,0,0
41,3820,4050.26,4172.82,4351.28,4463.08,4622.05,4445.64,4386.15,4137.95,4447.69,4825.13,4460,4382.05,4556.92,1700,1691,7.822,0,0,0,0
42,3828.21,4051.28,4176.92,4355.38,4461.03,4612.82,4444.62,4386.15,4133.85,4445.64,4816.92,4460.51,4383.08,4562.56,1702,1692,7.83,0,0,0,0
43,3831.79,4055.38,4176.92,4351.28,4465.13,4601.03,4438.46,4378.97,4134.36,4439.49,4815.38,4465.64,4380,4564.1,1700,1690,7.839,0,0,0,0
44,3830.77,4058.97,4178.97,4348.21,4456.41,4603.59,4441.03,4388.72,4149.74,4447.18,4827.18,4475.9,4383.59,4571.28,1701,1691,7.846,0,0,0,0
45,3833.33,4058.46,4181.54,4355.38,4458.97,4611.28,4444.62,4403.08,4156.92,4458.97,4832.82,4479.49,4390.26,4577.44,1701,1690,7.854,0,0,0,0
46,3836.92,4058.97,4179.49,4356.41,4454.87,4621.54,4445.64,4404.62,4158.46,4463.59,4829.74,4478.46,4390.26,4574.36,1701,1691,7.861,0,0,0,0
47,3837.95,4059.49,4178.97,4349.74,4438.46,4627.18,4446.67,4402.56,4168.21,4462.05,4825.64,4477.95,4386.15,4575.9,1700,1690,7.869,0,0,0,0
48,3835.38,4060,4180.51,4349.74,4462.05,4609.74,4443.59,4403.59,4163.59,4459.49,4828.72,4480,4391.79,4583.08,1700,1691,7.877,0,0,0,0
49,3833.33,4060.51,4180,4352.82,4471.79,4602.05,4444.62,4402.05,4154.36,4460.51,4840,4488.72,4402.05,4582.05,1701,1690,7.885,0,0,0,0
50,3831.28,4058.46,4178.46,4350.26,4436.92,4617.95,4448.72,4400,4165.64,4462.56,4841.54,4489.74,4398.46,4571.79,1699,1692,7.895,0,0,0,0
51,3830.77,4059.49,4180,4350.26,4440.51,4613.85,4445.13,4398.46,4170.77,4463.08,4828.21,4478.97,4384.1,4570.26,1701,1690,7.902,0,0,0,0
52,3830.77,4058.97,4178.46,4351.79,4476.41,4600,4438.46,4393.33,4153.33,4460.51,4822.05,4472.31,4377.44,4570.77,1700,1691,7.908,0,0,0,0
53,3830.77,4050.77,4175.38,4348.72,4465.13,4608.72,4433.85,4386.67,4146.67,4458.46,4827.69,4471.28,4383.59,4567.69,1701,1692,7.916,0,0,0,0
54,3832.82,4049.74,4176.41,4346.67,4436.41,4611.28,4429.74,4387.18,4154.36,4457.95,4831.79,4473.85,4390.26,4569.74,1701,1692,7.924,0,0,0,0
55,3829.23,4052.31,4175.38,4344.62,4438.97,4600,4434.87,4391.28,4153.85,4454.36,4830.26,4475.9,4387.69,4571.79,1702,1692,7.933,0,0,0,0
56,3821.54,4045.13,4166.67,4341.54,4444.62,4608.72,4438.46,4387.69,4140.51,4444.62,4824.62,4464.62,4378.97,4562.56,1702,1692,7.941,0,0,0,0
57,3823.59,4040.51,4160.51,4342.56,4439.49,4618.46,4435.38,4380.51,4131.79,4440.51,4824.1,4454.87,4380.51,4557.44,1701,1692,7.947,0,0,0,0
58,3826.67,4047.69,4165.13,4343.08,4446.15,4601.54,4436.92,4382.05,4136.41,4450.26,4829.74,4463.59,4387.18,4563.59,1702,1691,7.956,0,0,0,0
59,3819.49,4044.62,4165.64,4341.03,4455.9,4593.33,4435.38,4380,4140,4446.15,4816.92,4464.1,4372.31,4561.03,1701,1691,7.964,0,0,0,0
60,3814.87,4033.85,4161.54,4339.49,4446.15,4598.97,4429.74,4375.9,4141.54,4434.36,4803.59,4459.49,4360.51,4556.92,1700,1691,7.973,0,0,0,0
61,3823.59,4044.1,4171.79,4343.59,4432.31,4593.85,4435.38,4384.1,4151.28,4450.26,4825.64,4474.87,4381.54,4577.44,1699,1692,7.98,0,0,0,0
62,3830.77,4058.46,4182.05,4347.69,4444.62,4589.23,4442.05,4391.79,4156.92,4471.28,4846.67,4487.69,4396.92,4592.31,1701,1692,7.986,0,0,0,0
63,3823.59,4049.23,4171.28,4344.1,4449.74,4598.97,4436.41,4384.62,4148.72,4455.9,4826.15,4475.9,4376.41,4574.87,1699,1692,7.994,0,0,0,0
64,3818.46,4042.05,4161.54,4343.08,4442.05,4606.67,4431.79,4377.95,4139.49,4431.79,4802.56,4463.08,4357.95,4562.05,1700,1691,8.002,0,0,0,0
65,3822.05,4052.82,4166.67,4348.72,4455.9,4608.72,4430.26,4373.85,4136.92,4434.87,4809.23,4468.72,4366.15,4572.31,1700,1690,8.01,0,0,0,0
66,3824.1,4054.36,4168.21,4348.72,4464.1,4617.44,4427.69,4369.74,4132.31,4446.15,4817.44,4474.36,4373.85,4575.38,1699,1690,8.018,0,0,0,0
67,3824.62,4049.74,4166.67,4348.21,4450.77,4617.44,4428.72,4375.38,4137.95,4448.21,4817.44,4474.36,4375.9,4573.33,1700,1690,8.027,0,0,0,0
68,3822.05,4051.79,4166.15,4348.21,4451.79,4614.36,4427.18,4378.97,4146.15,4443.08,4814.36,4473.33,4372.31,4570.26,1699,1690,8.033,0,0,0,0
69,3816.92,4054.87,4166.15,4348.21,4471.79,4615.9,4424.1,4373.85,4139.49,4438.97,4811.28,4470.77,4363.59,4565.13,1699,1690,8.041,0,0,0,0
70,3822.56,4056.92,4169.23,4355.38,4472.31,4608.21,4426.15,4381.54,4138.46,4447.69,4818.46,4469.23,4370.77,4573.33,1698,1692,8.05,0,0,0,0
71,3828.21,4053.85,4172.31,4354.36,4440.51,4606.15,4431.79,4399.49,4154.87,4465.64,4833.33,4473.85,4384.1,4585.13,1698,1692,8.057,0,0,0,0
72,3824.1,4052.82,4172.82,4348.72,4441.03,4614.36,4433.33,4399.49,4155.9,4468.72,4834.87,4480,4377.95,4577.95,1697,1693,8.065,0,0,0,0
73,3818.97,4061.03,4170.26,4354.87,4475.9,4616.41,4430.77,4385.64,4144.1,4452.31,4818.46,4475.9,4360.51,4566.15,1697,1692,8.072,0,0,0,0
74,3816.92,4060.51,4165.64,4360.51,4470.26,4615.9,4430.77,4381.54,4145.13,4444.62,4813.33,4468.72,4357.44,4565.13,1697,1693,8.08,0,0,0,0
75,3821.54,4052.82,4165.64,4355.9,4456.92,4616.92,4430.77,4382.56,4144.1,4455.38,4827.18,4471.28,4368.72,4570.26,1697,1693,8.088,0,0,0,0
76,3822.05,4050.77,4164.1,4353.85,4474.87,4615.38,4429.74,4382.56,4140.51,4462.56,4830.77,4471.79,4370.77,4571.28,1697,1693,8.096,0,0,0,0
77,3812.82,4042.05,4156.41,4351.28,4460.51,4620,4432.82,4384.62,4144.1,4451.28,4816.92,4462.56,4356.92,4561.54,1698,1691,8.104,0,0,0,0
78,3809.74,4032.31,4154.36,4348.72,4429.23,4623.08,4430.77,4377.44,4135.9,4439.49,4808.72,4454.87,4350.77,4554.36,1698,1693,8.112,0,0,0,0
79,3816.41,4043.59,4162.05,4354.36,4446.15,4608.72,4425.64,4371.28,4132.31,4445.64,4812.31,4461.54,4360,4566.15,1699,1692,8.119,0,0,0,0
80,3817.44,4052.31,4165.64,4360.51,4473.85,4598.97,4427.18,4381.03,4148.72,4458.97,4818.97,4470.77,4363.59,4576.92,1698,1691,8.127,0,0,0,0
81,3812.31,4045.64,4161.54,4357.44,4475.9,4601.03,4429.23,4387.69,4152.31,4462.05,4826.67,4473.33,4362.05,4568.72,1699,1690,8.135,0,0,0,0
82,3816.92,4045.64,4164.62,4357.44,4461.54,4600,4427.18,4383.08,4144.1,4463.08,4830.26,4474.36,4367.69,4568.21,1699,1690,8.143,0,0,0,0
83,3825.13,4053.85,4170.77,4358.97,4436.41,4600,4429.23,4381.03,4146.15,4464.62,4831.79,4476.92,4370.26,4579.49,1700,1692,8.151,0,0,0,0
84,3824.1,4053.33,4169.74,4358.97,4440,4602.56,4428.21,4377.95,4143.59,4451.28,4830.26,4477.44,4363.59,4577.95,1700,1691,8.159,0,0,0,0
85,3823.59,4048.21,4170.26,4362.05,4457.44,4600,4422.56,4372.82,4136.92,4445.64,4823.08,4474.36,4360.51,4572.82,1698,1691,8.166,0,0,0,0
86,3819.49,4046.67,4169.74,4361.54,4464.62,4598.46,4421.54,4369.74,4132.82,4455.9,4812.82,4467.69,4353.85,4570.77,1699,1689,8.174,0,0,0,0
87,3807.18,4042.56,4157.44,4354.36,4476.92,4602.05,4421.03,4366.15,4128.72,4444.1,4802.56,4454.36,4336.41,4557.44,1699,1689,8.183,0,0,0,0
88,3805.64,4038.97,4156.41,4352.31,4458.46,4604.62,4425.64,4369.23,4135.38,4432.82,4808.21,4455.9,4340.51,4554.87,1699,1689,8.19,0,0,0,0
89,3822.05,4050.26,4177.95,4360.51,4425.13,4601.54,4436.92,4387.69,4153.33,4465.13,4836.92,4482.05,4373.33,4581.54,1699,1690,8.198,0,0,0,0
90,3830.26,4060.51,4184.1,4366.15,4443.59,4598.97,4438.97,4400.51,4160.51,4485.64,4846.67,4491.79,4380.51,4592.82,1699,1690,8.205,0,0,0,0
91,3820.51,4058.46,4166.15,4363.08,4480.51,4603.08,4430.77,4389.23,4150.77,4460.51,4827.18,4475.9,4358.46,4571.28,1699,1690,8.214,0,0,0,0
92,3819.49,4057.95,4162.56,4362.05,4481.54,4604.62,4425.64,4372.82,4141.03,4454.36,4821.54,4469.23,4356.92,4565.64,1700,1690,8.221,0,0,0,0
93,3828.72,4064.62,4177.44,4365.13,4469.74,4601.54,4429.74,4382.56,4145.13,4472.31,4830.26,4478.97,4369.74,4582.05,1699,1690,8.229,0,0,0,0
94,3827.18,4068.21,4182.05,4363.08,4459.49,4607.69,4437.44,4402.05,4158.46,4469.74,4831.28,4483.08,4369.23,4588.21,1700,1692,8.237,0,0,0,0
95,3824.1,4066.67,4174.36,4361.03,4456.92,4618.46,4436.92,4396.92,4158.46,4457.44,4829.74,4479.49,4363.59,4583.59,1699,1690,8.245,0,0,0,0
96,3826.67,4063.59,4172.31,4360.51,4470.26,4614.87,4429.74,4382.56,4147.69,4458.97,4830.26,4478.97,4364.62,4583.59,1699,1692,8.252,0,0,0,0
97,3823.59,4060.51,4174.36,4360.51,4477.95,4601.03,4426.15,4381.54,4140.51,4458.97,4828.72,4479.49,4366.67,4584.1,1700,1690,8.26,0,0,0,0
98,3821.03,4058.46,4173.85,4360.51,4469.23,4596.92,4424.1,4382.05,4135.9,4452.31,4825.13,4478.46,4364.1,4582.56,1698,1691,8.268,0,0,0,0
99,3821.54,4052.82,4171.79,4357.95,4447.69,4610.26,4425.13,4380.51,4133.85,4457.44,4826.67,4474.87,4358.46,4582.05,1699,1690,8.277,0,0,0,0
100,3814.36,4050.26,4170.77,4357.95,4441.54,4620.51,4425.64,4382.05,4134.87,4456.92,4828.72,4473.33,4351.79,4576.92,1698,1690,8.284,0,0,0,0
101,3811.28,4056.41,4172.82,4360,4461.03,4617.44,4418.97,4380,4135.38,4443.08,4817.44,4471.79,4345.64,4567.18,1698,1690,8.291,0,0,0,0
102,3816.92,4062.05,4174.87,4362.05,4476.41,4616.92,4411.28,4372.31,4136.41,4445.64,4808.72,4471.79,4343.59,4568.21,1698,1691,8.299,0,0,0,0
103,3822.05,4062.05,4176.41,4364.1,4478.97,4621.03,4415.38,4374.36,4140,4461.03,4820.51,4475.9,4351.79,4579.49,1699,1691,8.307,0,0,0,0
104,3820,4060,4177.44,4364.1,4474.87,4617.95,4422.56,4385.13,4147.69,4461.54,4833.85,4476.92,4359.49,4585.13,1697,1691,8.315,0,0,0,0
105,3819.49,4061.03,4177.44,4362.56,4466.15,4611.28,4426.15,4389.23,4152.31,4460.51,4830.26,4477.44,4355.38,4586.67,1698,1691,8.323,0,0,0,0
106,3821.54,4062.56,4177.95,4362.05,4456.92,4616.41,4428.72,4389.23,4153.85,4473.33,4829.23,4478.46,4352.82,4587.69,1698,1690,8.331,0,0,0,0
107,3817.44,4059.49,4176.92,4360.51,4463.08,4623.08,4426.15,4387.69,4151.28,4469.74,4832.31,4477.44,4355.9,4582.05,1697,1692,8.338,0,0,0,0
108,3815.38,4059.49,4175.9,4362.56,4484.62,4611.28,4422.56,4377.95,4141.54,4447.69,4822.56,4477.44,4351.79,4574.36,1699,1690,8.346,0,0,0,0
109,3812.82,4059.49,4172.31,4362.05,4488.21,4602.05,4422.05,4371.79,4131.28,4432.31,4809.23,4474.87,4338.97,4569.74,1698,1690,8.354,0,0,0,0
110,3809.74,4053.85,4169.23,4355.9,4455.38,4617.95,4427.18,4383.59,4139.49,4435.9,4806.67,4469.23,4334.87,4566.15,1698,1689,8.362,0,0,0,0
111,3813.85,4053.33,4172.31,4354.87,4440.51,4628.21,4430.26,4391.28,4150.77,4453.85,4813.85,4474.87,4345.13,4570.77,1697,1689,8.37,0,0,0,0
112,3821.03,4063.08,4179.49,4358.97,4481.03,4615.38,4428.72,4385.13,4142.05,4461.03,4822.05,4487.18,4354.36,4583.59,1698,1689,8.378,0,0,0,0
113,3821.54,4067.18,4184.1,4362.05,4507.69,4607.18,4430.26,4387.69,4139.49,4458.46,4826.67,4489.74,4355.9,4589.23,1697,1688,8.385,0,0,0,0
114,3820,4065.13,4185.64,4363.08,4468.21,4620,4437.44,4398.97,4153.85,4467.69,4837.44,4494.36,4360,4594.36,1697,1689,8.393,0,0,0,0
115,3823.59,4070.26,4190.26,4364.62,4441.03,4634.36,4439.49,4398.97,4154.36,4475.9,4846.15,4503.59,4369.23,4601.54,1696,1688,8.401,0,0,0,0
116,3823.08,4075.9,4189.23,4367.69,4476.41,4633.85,4432.82,4386.15,4135.38,4459.49,4836.41,4496.92,4363.08,4593.85,1697,1688,8.409,0,0,0,0
117,3817.44,4073.33,4183.59,4367.69,4489.74,4621.54,4429.74,4386.15,4124.1,4451.28,4822.05,4486.67,4350.77,4581.03,1696,1686,8.417,0,0,0,0
118,3816.41,4067.69,4187.69,4364.1,4465.13,4614.36,4431.79,4395.38,4122.05,4468.21,4826.67,4492.82,4355.38,4584.62,1693,1687,8.424,0,0,0,0
119,3815.38,4064.1,4187.69,4361.54,4468.21,4615.38,4429.23,4393.85,4122.05,4473.33,4834.36,4495.38,4362.05,4588.21,1694,1685,8.432,0,0,0,0
120,3812.31,4064.1,4177.95,4361.54,4476.41,4614.36,4429.23,4387.18,4121.03,4459.49,4829.74,4489.74,4357.44,4582.05,1691,1685,8.439,0,0,0,0
121,3809.23,4061.03,4175.38,4360.51,4448.21,4615.9,4436.92,4388.21,4117.95,4454.87,4827.18,4490.77,4350.77,4578.97,1691,1683,8.448,0,0,0,0
122,3805.64,4056.41,4175.9,4359.49,4446.15,4616.41,4435.38,4388.21,4120.51,4465.13,4825.13,4487.69,4347.69,4575.38,1689,1683,8.456,0,0,0,0
123,3806.67,4058.46,4173.85,4362.05,4472.82,4613.33,4429.74,4386.15,4121.54,4477.44,4830.26,4483.59,4351.79,4574.87,1688,1683,8.463,0,0,0,0
124,3808.21,4061.03,4174.36,4361.03,4460,4620.51,4436.92,4392.31,4119.49,4474.87,4836.92,4487.18,4358.46,4580,1686,1681,8.471,0,0,0,0
125,3806.15,4061.03,4175.38,4358.46,4458.46,4617.95,4437.95,4389.23,4118.97,4458.97,4831.28,4489.23,4356.41,4583.08,1686,1681,8.479,0,0,0,0
126,3813.85,4070.77,4175.9,4363.08,4485.64,4600,4427.69,4375.38,4113.85,4461.03,4827.69,4490.26,4355.9,4586.15,1684,1680,8.487,0,0,0,0
127,3816.92,4076.41,4175.9,4364.1,4479.49,4608.21,4422.56,4369.74,4107.69,4469.74,4829.74,4484.1,4355.9,4585.13,1683,1681,8.496,0,0,0,0
128,3812.82,4067.69,4172.82,4360.51,4461.03,4626.15,4426.67,4373.85,4115.9,4461.54,4828.72,4474.36,4352.31,4585.64,1679,1679,8.503,0,0,0,0
0,3824.62,4072.82,4174.87,4365.64,4466.67,4612.31,4434.36,4389.23,4136.41,4466.15,4835.38,4482.56,4362.56,4600.51,1679,1678,8.509,0,0,0,0
1,3835.9,4087.18,4184.1,4369.74,4467.18,4597.44,4438.97,4406.15,4141.03,4481.54,4847.18,4496.92,4372.31,4610.77,1676,1676,8.518,0,0,0,0
2,3829.23,4084.62,4190.26,4365.64,4460,4601.54,4434.36,4400.51,4126.67,4477.95,4844.62,4493.33,4363.59,4602.56,1676,1676,8.525,0,0,0,0
3,3828.72,4080.51,4188.72,4366.67,4477.44,4600,4428.72,4384.62,4119.49,4469.74,4837.95,4486.15,4357.44,4600.51,1674,1676,8.534,0,0,0,0
4,3833.85,4084.62,4189.74,4371.28,4490.77,4597.95,4436.41,4392.31,4129.23,4480,4844.1,4492.31,4366.67,4613.33,1673,1675,8.541,0,0,0,0
5,3831.79,4083.08,4189.23,4368.72,4488.21,4595.9,4438.46,4398.46,4126.67,4481.03,4850.26,4498.46,4372.31,4615.9,1670,1674,8.548,0,0,0,0
6,3830.26,4078.46,4182.56,4366.15,4477.44,4588.72,4430.26,4377.95,4107.18,4456.92,4837.44,4490.26,4358.97,4605.64,1667,1674,8.556,0,0,0,0
7,3824.62,4069.74,4176.41,4364.62,4457.95,4596.92,4427.69,4360,4099.49,4432.82,4815.9,4476.92,4336.92,4594.36,1664,1670,8.565,0,0,0,0
8,3819.49,4063.59,4179.49,4361.03,4456.92,4607.69,4431.28,4368.21,4105.13,4450.77,4823.59,4487.69,4343.08,4596.41,1658,1668,8.575,0,0,0,0
9,3827.69,4071.79,4188.72,4364.1,4474.87,4595.9,4433.85,4381.03,4105.13,4481.54,4846.67,4506.67,4368.72,4607.18,1655,1663,8.582,0,0,0,0
10,3831.28,4076.41,4188.72,4366.67,4491.79,4584.1,4428.21,4381.54,4104.1,4469.74,4841.54,4500,4368.21,4599.49,1649,1658,8.588,0,0,0,0
11,3822.56,4068.72,4178.46,4360.51,4493.85,4589.23,4422.56,4380,4108.72,4453.33,4826.15,4485.13,4354.36,4583.08,1645,1654,8.596,0,0,0,0
12,3821.54,4063.59,4173.33,4359.49,4473.85,4601.03,4432.31,4375.9,4103.08,4458.46,4823.08,4482.05,4352.31,4584.1,1638,1649,8.604,0,0,0,0
13,3821.54,4063.08,4176.92,4361.03,4462.05,4609.23,4442.05,4365.13,4094.87,4448.72,4815.9,4476.92,4348.21,4585.64,1631,1647,8.612,0,0,0,0
14,3821.54,4066.15,4176.92,4357.95,4488.72,4606.15,4434.87,4358.97,4099.49,4441.54,4812.31,4469.74,4345.13,4575.38,1623,1642,8.62,0,0,0,0
15,3827.18,4072.82,4176.92,4359.49,4514.87,4601.03,4430.26,4366.67,4106.15,4469.23,4827.18,4478.97,4358.97,4575.38,1613,1636,8.628,0,0,0,0
16,3828.72,4074.87,4181.03,4365.13,4500,4600,4440,4378.46,4111.79,4482.05,4836.92,4488.72,4368.21,4586.15,1602,1626,8.636,0,0,0,0
17,3820,4065.13,4175.9,4363.59,4482.05,4604.62,4446.15,4385.13,4116.92,4463.08,4828.72,4482.05,4354.36,4579.49,1590,1617,8.642,0,0,0,0
18,3814.87,4060,4170.77,4358.46,4488.21,4609.23,4442.05,4382.05,4112.82,4455.38,4820,4473.85,4343.59,4564.62,1578,1605,8.65,0,0,0,0
19,3822.05,4069.74,4179.49,4360,4495.9,4604.1,4433.85,4369.74,4104.62,4459.49,4823.08,4475.9,4356.92,4570.77,1564,1596,8.659,0,0,0,0
20,3829.74,4075.9,4187.69,4364.1,4491.79,4597.44,4429.23,4365.13,4104.62,4464.62,4830.77,4480.51,4363.59,4583.08,1550,1585,8.667,0,0,0,0
21,3826.67,4068.21,4182.05,4364.1,4489.23,4600,4428.21,4363.08,4097.44,4455.9,4820,4477.95,4349.23,4576.92,1534,1579,8.674,0,0,0,0
22,3822.05,4062.56,4177.95,4362.56,4495.9,4600.51,4430.77,4360.51,4090.26,4435.9,4806.15,4473.85,4338.97,4566.67,1518,1571,8.682,0,0,0,0
23,3827.18,4067.18,4181.54,4365.64,4495.38,4592.82,4436.92,4369.74,4100.51,4443.08,4815.38,4477.95,4308.21,4569.74,1502,1561,8.69,0,0,0,0
24,3830.26,4069.23,4184.1,4366.67,4480.51,4595.38,4444.62,4376.41,4108.21,4469.23,4829.74,4486.15,4253.33,4577.95,1486,1555,8.698,0,0,0,0
25,3832.31,4064.62,4186.67,4364.1,4472.31,4602.56,4447.18,4376.92,4114.36,4479.49,4836.92,4488.21,4234.36,4584.1,1472,1548,8.706,0,0,0,0
26,3840,4066.15,4190.26,4363.59,4478.46,4598.46,4447.18,4384.62,4127.18,4490.26,4844.62,4488.72,4248.72,4592.82,1457,1540,8.715,0,0,0,0
27,3850.26,4080,4192.82,4368.21,4484.62,4591.28,4443.59,4382.05,4121.03,4492.82,4843.59,4492.31,4250.77,4602.05,1443,1532,8.721,0,0,0,0
28,3861.54,4087.69,4195.9,4373.85,4482.56,4593.33,4443.59,4369.74,4103.08,4467.69,4837.95,4493.33,4256.41,4610.26,1428,1523,8.729,0,0,0,0
29,3871.79,4083.08,4197.44,4377.44,4468.72,4594.87,4444.62,4376.92,4109.23,4461.54,4851.28,4493.33,4281.54,4626.15,1414,1511,8.736,0,0,0,0
30,3879.49,4090.26,4197.44,4378.46,4458.97,4584.1,4436.41,4375.9,4114.87,4477.95,4863.08,4495.38,4292.31,4642.56,1398,1504,8.745,0,0,0,0
31,3879.49,4094.36,4194.36,4375.9,4455.38,4580.51,4434.36,4357.95,4103.59,4472.82,4853.33,4495.38,4286.67,4645.13,1389,1498,8.753,0,0,0,0
32,3883.08,4089.74,4196.92,4378.46,4454.87,4585.13,4438.97,4363.08,4102.05,4468.21,4858.97,4501.03,4295.38,4646.67,1379,1496,8.76,0,0,0,0
33,3901.03,4103.08,4216.41,4390.26,4463.59,4577.44,4432.82,4375.9,4111.79,4490.26,4886.67,4525.13,4332.31,4669.74,1375,1496,8.768,0,0,0,0
34,3911.79,4116.92,4232.82,4396.92,4475.9,4569.74,4426.15,4375.9,4121.03,4500,4898.46,4542.56,4354.36,4693.33,1371,1494,8.775,0,0,0,0
35,3905.64,4105.64,4226.15,4392.31,4466.15,4586.15,4431.79,4372.82,4120,4480,4887.69,4533.33,4334.87,4690.26,1369,1491,8.784,0,0,0,0
36,3900,4098.46,4221.54,4390.26,4447.18,4601.54,4433.85,4376.92,4122.56,4479.49,4891.28,4528.72,4332.82,4685.13,1371,1486,8.792,0,0,0,0
37,3905.13,4097.95,4227.18,4391.79,4443.59,4591.28,4428.72,4382.56,4132.31,4490.26,4905.64,4542.05,4358.46,4695.9,1374,1485,8.799,0,0,0,0
38,3905.64,4081.54,4227.18,4390.26,4451.79,4576.92,4431.79,4381.54,4129.74,4480,4907.18,4545.13,4353.85,4694.87,1379,1486,8.808,0,0,0,0
39,3895.9,4071.28,4226.67,4389.23,4460,4573.33,4433.85,4373.33,4124.62,4477.44,4904.1,4538.97,4331.79,4681.54,1384,1489,8.814,0,0,0,0
40,3889.23,4069.74,4227.18,4389.74,4460,4571.28,4435.9,4378.97,4135.38,4483.59,4908.21,4537.95,4329.74,4674.36,1392,1491,8.822,0,0,0,0
41,3878.97,4055.9,4217.44,4388.21,4457.95,4570.26,4440.51,4389.23,4132.82,4472.31,4908.72,4529.74,4322.56,4666.15,1399,1494,8.83,0,0,0,0
42,3871.79,4047.69,4212.82,4389.74,4460,4581.03,4445.13,4385.64,4114.87,4461.54,4905.64,4520,4307.18,4661.03,1409,1496,8.839,0,0,0,0
43,3874.87,4051.79,4218.97,4395.9,4455.38,4587.18,4445.64,4390.26,4124.62,4469.74,4911.28,4525.13,4309.23,4666.67,1418,1500,8.847,0,0,0,0
44,3873.85,4046.15,4217.44,4397.44,4461.54,4572.31,4442.56,4396.41,4140.51,4482.05,4926.67,4531.28,4316.41,4669.23,1427,1507,8.853,0,0,0,0
45,3866.67,4035.38,4212.31,4398.97,4470.77,4566.67,4442.05,4393.33,4143.08,4493.33,4943.08,4527.69,4318.46,4660.51,1437,1513,8.862,0,0,0,0
46,3860,4032.82,4209.74,4397.44,4461.54,4579.49,4444.1,4397.44,4150.77,4496.92,4950.77,4525.64,4314.87,4653.33,1447,1522,8.87,0,0,0,0
47,3851.28,4031.28,4202.56,4389.23,4468.21,4575.9,4444.62,4404.62,4155.9,4489.23,4946.67,4521.54,4300.51,4646.15,1458,1529,8.878,0,0,0,0
48,3844.1,4022.56,4197.44,4386.15,4471.28,4566.67,4442.05,4403.08,4154.36,4490.77,4944.62,4510.26,4293.33,4634.87,1467,1539,8.886,0,0,0,0
49,3840,4008.72,4196.41,4387.18,4448.72,4574.87,4444.1,4400,4156.92,4491.28,4953.33,4505.13,4297.95,4625.13,1478,1547,8.894,0,0,0,0
50,3831.79,4000,4191.28,4387.69,4456.92,4577.44,4445.13,4399.49,4157.44,4476.41,4953.85,4506.67,4286.15,4618.46,1487,1553,8.901,0,0,0,0
51,3823.59,3998.46,4189.23,4389.74,4482.56,4566.15,4441.03,4392.82,4147.69,4466.15,4949.74,4503.59,4273.33,4614.36,1498,1557,8.91,0,0,0,0
52,3826.67,3993.85,4200,4391.28,4464.1,4565.13,4438.97,4396.92,4153.33,4473.85,4967.18,4509.23,4282.05,4620.51,1508,1560,8.917,0,0,0,0
53,3832.82,3988.21,4207.18,4393.33,4441.03,4571.28,4444.62,4414.36,4171.28,4475.9,4984.1,4521.03,4287.69,4625.13,1519,1564,8.925,0,0,0,0
54,3826.15,3988.21,4198.46,4393.33,4460,4571.28,4446.67,4411.79,4162.56,4456.92,4973.85,4513.33,4276.92,4615.38,1529,1569,8.934,0,0,0,0
55,3820,3988.72,4196.92,4391.79,4483.08,4568.21,4435.38,4387.18,4128.72,4437.95,4963.59,4502.05,4268.72,4608.72,1549,1583,8.942,0,0,0,0
56,3824.62,3989.74,4204.62,4391.79,4478.46,4564.62,4430.77,4382.05,4111.28,4445.64,4973.33,4505.13,4266.67,4613.85,1557,1589,8.95,0,0,0,0
57,3826.67,3989.23,4202.56,4384.62,4445.13,4569.23,4441.03,4402.05,4123.59,4470.77,4985.64,4510.26,4266.15,4618.46,1565,1595,8.957,0,0,0,0
58,3820,3982.56,4198.46,4377.95,4433.85,4572.31,4446.67,4414.36,4138.46,4473.33,4985.13,4508.21,4264.62,4614.87,1572,1600,8.965,0,0,0,0
59,3817.95,3978.97,4201.54,4381.54,4475.38,4566.15,4449.23,4418.97,4139.49,4460.51,4976.92,4503.59,4257.44,4609.23,1579,1604,8.972,0,0,0,0
60,3824.1,3987.18,4208.72,4389.74,4489.23,4575.9,4465.64,4425.13,4136.41,4466.67,4978.97,4511.28,4257.44,4610.77,1587,1609,8.981,0,0,0,0
61,3822.56,3990.26,4212.31,4391.28,4451.28,4602.56,4480.51,4435.9,4146.15,4479.49,4987.69,4522.56,4263.59,4614.87,1595,1614,8.988,0,0,0,0
62,3807.69,3978.97,4207.69,4386.15,4453.85,4610.26,4480,4447.69,4162.05,4475.9,4977.44,4514.87,4255.38,4602.56,1600,1620,8.996,0,0,0,0
63,3797.95,3968.21,4197.95,4385.13,4496.92,4596.41,4476.41,4449.74,4160.51,4472.31,4963.59,4501.54,4245.13,4583.08,1606,1623,9.003,0,0,0,0
64,3795.38,3968.21,4196.41,4389.23,4486.15,4597.95,4476.92,4448.72,4144.1,4470.77,4967.18,4505.64,4246.67,4581.03,1611,1623,9.011,0,0,0,0
65,3791.79,3966.67,4197.95,4385.64,4450.77,4612.31,4479.49,4458.97,4137.44,4463.59,4969.23,4508.72,4254.36,4587.69,1617,1624,9.019,0,0,0,0
66,3791.28,3964.1,4197.95,4378.97,4467.18,4606.67,4477.95,4456.92,4133.33,4467.18,4966.15,4505.13,4264.62,4590.77,1621,1622,9.027,0,0,0,0
67,3800.51,3970.77,4202.56,4384.1,4485.13,4588.72,4474.36,4441.54,4129.74,4487.69,4977.44,4515.9,4281.03,4601.54,1625,1626,9.034,0,0,0,0
68,3811.28,3977.44,4210.77,4389.23,4467.69,4587.18,4476.41,4450.26,4136.92,4507.69,4991.28,4530.26,4292.31,4614.87,1631,1630,9.042,0,0,0,0
69,3808.21,3975.9,4208.72,4380,4465.13,4597.95,4479.49,4461.54,4131.28,4498.46,4979.49,4523.59,4280,4609.23,1635,1635,9.05,0,0,0,0
70,3798.46,3971.28,4202.05,4373.33,4480,4601.03,4475.38,4441.54,4107.18,4472.31,4954.36,4507.69,4263.08,4590.77,1638,1638,9.059,0,0,0,0
71,3801.03,3970.77,4205.13,4375.38,4477.95,4598.97,4473.33,4425.13,4096.41,4463.59,4944.62,4505.64,4262.56,4585.64,1641,1641,9.066,0,0,0,0
72,3809.23,3976.92,4212.31,4376.92,4470.77,4603.08,4479.49,4437.95,4108.21,4474.36,4948.21,4515.38,4270.77,4592.31,1645,1643,9.074,0,0,0,0
73,3811.79,3978.97,4217.44,4382.05,4473.33,4611.79,4481.03,4447.18,4120,4485.64,4951.28,4523.08,4277.95,4601.54,1647,1645,9.081,0,0,0,0
74,3811.28,3975.38,4223.08,4386.15,4482.05,4613.33,4475.38,4440,4118.46,4484.1,4953.85,4525.13,4282.56,4608.21,1650,1648,9.089,0,0,0,0
75,3812.31,3980,4224.62,4383.59,4492.82,4604.62,4473.85,4431.79,4106.15,4474.36,4952.82,4524.1,4283.59,4608.72,1653,1648,9.097,0,0,0,0
76,3814.87,3988.72,4220.51,4373.33,4496.92,4599.49,4474.87,4425.64,4098.97,4469.74,4947.69,4526.67,4284.62,4606.67,1654,1651,9.105,0,0,0,0
77,3811.79,3983.08,4213.85,4362.05,4477.95,4600,4473.85,4427.69,4107.18,4466.67,4937.44,4521.54,4276.41,4604.1,1658,1650,9.113,0,0,0,0
78,3807.69,3971.79,4215.9,4357.44,4452.82,4605.13,4476.41,4437.44,4114.87,4456.41,4924.1,4512.31,4261.03,4601.03,1659,1652,9.12,0,0,0,0
79,3809.23,3971.28,4221.54,4358.46,4456.41,4610.77,4480.51,4444.62,4118.97,4452.82,4919.49,4517.44,4260,4600.51,1661,1651,9.128,0,0,0,0
80,3808.21,3975.9,4220.51,4362.56,4476.41,4604.62,4476.92,4443.08,4130.26,4454.36,4917.95,4520.51,4264.62,4598.46,1662,1650,9.137,0,0,0,0
81,3804.62,3975.38,4215.38,4366.15,4479.49,4596.92,4472.31,4442.56,4146.67,4456.92,4916.41,4512.31,4266.15,4595.38,1663,1650,9.144,0,0,0,0
82,3804.62,3973.33,4213.33,4365.64,4473.85,4599.49,4473.85,4444.1,4154.87,4477.44,4928.21,4516.41,4283.08,4597.95,1663,1650,9.152,0,0,0,0
83,3807.69,3972.82,4216.92,4365.13,4475.9,4603.08,4475.38,4448.21,4153.85,4495.9,4943.59,4529.74,4297.95,4603.59,1664,1651,9.16,0,0,0,0
84,3807.18,3974.87,4215.9,4372.82,4474.36,4604.62,4475.9,4455.38,4148.72,4488.72,4940,4528.72,4291.28,4602.56,1665,1651,9.167,0,0,0,0
85,3804.62,3974.87,4215.38,4373.33,4472.31,4612.31,4476.92,4460,4147.18,4481.54,4931.28,4522.56,4290.77,4600,1666,1652,9.175,0,0,0,0
86,3803.08,3973.85,4217.95,4365.13,4473.85,4612.82,4475.9,4458.46,4151.79,4481.54,4928.72,4525.13,4293.85,4601.03,1667,1651,9.183,0,0,0,0
87,3798.46,3976.92,4214.87,4363.08,4473.33,4603.08,4471.79,4459.49,4151.28,4473.85,4913.85,4523.59,4275.38,4600,1667,1653,9.192,0,0,0,0
88,3798.46,3973.85,4212.31,4365.64,4473.33,4597.95,4471.79,4461.03,4138.97,4467.18,4904.1,4520,4260,4596.41,1668,1652,9.199,0,0,0,0
89,3804.62,3963.08,4214.87,4366.15,4472.31,4598.97,4472.82,4458.46,4136.41,4473.33,4914.87,4523.08,4273.33,4597.95,1667,1651,9.206,0,0,0,0
90,3807.69,3958.97,4217.95,4364.1,4466.15,4603.59,4471.28,4458.46,4147.18,4479.49,4920,4528.21,4282.05,4601.54,1670,1648,9.214,0,0,0,0
91,3806.15,3958.97,4216.41,4365.13,4460,4608.21,4472.82,4456.92,4144.1,4472.31,4909.23,4525.64,4268.72,4598.97,1669,1645,9.222,0,0,0,0
92,3804.1,3953.33,4214.36,4369.74,4461.03,4606.15,4472.31,4448.72,4134.36,4461.03,4902.56,4520.51,4258.46,4595.9,1669,1647,9.23,0,0,0,0
93,3804.62,3951.28,4217.44,4373.33,4463.08,4596.92,4461.54,4441.03,4135.9,4457.95,4905.64,4522.56,4264.1,4598.46,1669,1647,9.238,0,0,0,0
94,3809.74,3956.41,4220.51,4374.87,4460,4594.36,4454.36,4440,4136.92,4463.59,4906.15,4526.67,4274.87,4602.56,1669,1650,9.246,0,0,0,0
95,3811.79,3957.95,4217.95,4374.36,4461.54,4596.92,4459.49,4444.62,4142.05,4471.28,4906.67,4525.13,4280.51,4602.05,1669,1651,9.253,0,0,0,0
96,3806.67,3955.38,4215.38,4373.33,4463.08,4598.46,4462.56,4448.21,4149.74,4476.92,4905.64,4520.51,4275.38,4601.03,1670,1654,9.261,0,0,0,0
97,3805.13,3956.92,4217.44,4373.85,4456.41,4601.54,4459.49,4446.67,4145.13,4472.82,4896.92,4521.03,4268.72,4600.51,1671,1653,9.269,0,0,0,0
98,3806.67,3954.36,4213.33,4376.41,4461.54,4600.51,4458.46,4442.56,4137.95,4460.51,4890.26,4520.51,4267.69,4600,1671,1652,9.277,0,0,0,0
99,3805.64,3945.13,4209.74,4372.82,4468.72,4597.44,4457.95,4436.92,4136.92,4457.95,4892.31,4509.74,4260,4600,1673,1649,9.285,0,0,0,0
100,3806.15,3940,4208.21,4364.1,4458.46,4600.51,4457.95,4426.15,4122.05,4456.92,4889.74,4504.1,4249.23,4597.44,1672,1648,9.292,0,0,0,0
101,3812.82,3943.08,4204.62,4367.69,4446.15,4605.13,4457.95,4426.15,4116.41,4465.64,4889.23,4515.9,4260,4603.59,1674,1649,9.3,0,0,0,0
102,3816.41,3943.08,4209.23,4375.9,4452.82,4602.05,4458.46,4438.97,4135.38,4485.64,4896.41,4525.13,4275.38,4614.87,1672,1650,9.308,0,0,0,0
103,3810.77,3944.62,4215.38,4375.38,4468.72,4597.95,4461.03,4445.13,4143.59,4483.08,4893.85,4520.51,4268.21,4609.74,1671,1654,9.316,0,0,0,0
104,3807.69,3952.31,4212.31,4374.87,4480,4600,4460.51,4440,4138.46,4465.64,4884.62,4516.92,4258.97,4597.95,1672,1656,9.324,0,0,0,0
105,3810.77,3952.82,4210.77,4376.41,4473.85,4599.49,4460,4442.05,4150.26,4471.28,4889.23,4522.05,4271.28,4601.03,1670,1658,9.332,0,0,0,0
106,3810.26,3945.13,4213.85,4376.41,4460,4598.97,4469.23,4457.44,4169.23,4488.72,4895.9,4525.13,4281.03,4607.18,1670,1660,9.339,0,0,0,0
107,3805.13,3942.05,4212.31,4378.46,4466.15,4602.56,4479.49,4466.67,4169.74,4484.62,4893.85,4519.49,4277.95,4601.03,1670,1661,9.347,0,0,0,0
108,3802.56,3944.62,4206.67,4381.54,4475.9,4603.59,4473.33,4460,4155.9,4473.33,4891.79,4510.26,4276.41,4597.44,1673,1663,9.355,0,0,0,0
109,3806.67,3944.62,4207.18,4381.03,4473.33,4601.03,4462.05,4453.33,4150.26,4471.79,4888.72,4509.74,4280,4600.51,1673,1665,9.363,0,0,0,0
110,3811.28,3942.56,4211.28,4380.51,4472.82,4604.1,4462.56,4452.82,4153.85,4474.36,4886.15,4518.46,4282.56,4602.05,1675,1670,9.371,0,0,0,0
111,3812.82,3942.05,4212.82,4382.05,4472.82,4610.26,4465.64,4450.77,4155.9,4473.33,4880.51,4520.51,4278.97,4600.51,1676,1673,9.378,0,0,0,0
112,3810.77,3943.08,4211.79,4380.51,4483.08,4607.18,4463.08,4447.18,4154.87,4470.77,4876.41,4517.95,4276.41,4597.95,1675,1673,9.386,0,0,0,0
113,3811.28,3944.1,4213.85,4378.97,4501.03,4597.95,4458.97,4448.21,4154.36,4474.87,4883.59,4523.08,4280,4593.85,1676,1672,9.394,0,0,0,0
114,3820,3943.08,4218.46,4381.54,4494.87,4593.33,4461.54,4451.79,4155.9,4478.46,4891.79,4527.18,4286.15,4593.33,1675,1668,9.402,0,0,0,0
115,3827.18,3946.67,4221.03,4385.13,4478.97,4594.36,4470.77,4459.49,4164.62,4484.62,4888.72,4525.64,4292.31,4600,1677,1668,9.41,0,0,0,0
116,3826.15,3950.77,4222.56,4384.1,4486.67,4596.41,4476.92,4467.18,4173.33,4493.85,4883.08,4524.62,4290.26,4599.49,1678,1667,9.417,0,0,0,0
117,3825.64,3947.69,4217.95,4381.03,4500,4594.36,4475.9,4465.13,4171.28,4487.69,4877.44,4524.62,4281.54,4585.13,1678,1670,9.424,0,0,0,0
118,3827.18,3943.59,4213.85,4380.51,4494.87,4594.36,4474.36,4459.49,4158.97,4473.85,4868.21,4517.95,4276.41,4573.85,1680,1670,9.433,0,0,0,0
119,3824.1,3946.67,4216.41,4383.59,4488.21,4601.03,4475.9,4457.44,4148.21,4469.74,4861.54,4508.72,4270.77,4572.31,1679,1674,9.441,0,0,0,0
120,3820.51,3951.79,4215.38,4384.1,4493.85,4601.03,4476.41,4458.97,4151.28,4472.31,4858.46,4510.26,4268.21,4570.77,1682,1676,9.449,0,0,0,0
121,3827.69,3952.31,4215.38,4382.05,4491.79,4596.92,4476.41,4464.62,4157.44,4482.56,4864.62,4519.49,4276.41,4571.79,1682,1675,9.457,0,0,0,0
122,3834.36,3951.79,4218.46,4378.46,4477.95,4595.9,4476.92,4471.79,4152.31,4489.23,4874.36,4523.08,4281.54,4579.49,1683,1675,9.464,0,0,0,0
123,3829.74,3953.33,4216.41,4375.9,4473.33,4591.79,4476.41,4473.33,4155.9,4479.49,4868.21,4517.44,4276.92,4581.54,1683,1673,9.471,0,0,0,0
124,3830.77,3955.38,4212.31,4380,4481.03,4584.1,4476.41,4470.26,4170.77,4479.49,4858.97,4508.72,4279.49,4573.85,1684,1675,9.48,0,0,0,0
125,3835.38,3956.92,4213.85,4386.15,4493.33,4580,4477.95,4471.79,4175.9,4491.79,4863.08,4506.67,4285.13,4569.23,1685,1675,9.488,0,0,0,0
126,3833.33,3958.46,4215.9,4383.59,4490.26,4581.54,4475.9,4472.31,4172.31,4481.54,4864.62,4506.67,4279.49,4570.77,1685,1676,9.496,0,0,0,0
127,3833.33,3956.41,4214.87,4378.46,4472.82,4590.26,4475.9,4470.26,4170.77,4467.18,4856.41,4507.18,4273.33,4571.28,1686,1676,9.504,0,0,0,0
128,3840.51,3956.41,4216.41,4380.51,4476.41,4593.85,4477.95,4470.26,4169.74,4478.97,4856.41,4514.87,4279.49,4580,1685,1678,9.511,0,0,0,0
0,3849.74,3967.69,4226.15,4385.13,4500.51,4587.18,4476.92,4472.31,4172.82,4491.28,4870.77,4526.15,4295.38,4595.9,1688,1676,9.519,0,0,0,0
1,3850.26,3971.28,4234.87,4383.59,4494.87,4591.28,4483.59,4476.92,4181.54,4489.23,4881.54,4527.69,4295.38,4598.46,1688,1675,9.528,0,0,0,0
2,3845.64,3959.49,4229.23,4373.33,4469.23,4603.59,4489.74,4480,4186.15,4488.72,4872.82,4523.08,4281.03,4589.74,1690,1674,9.535,0,0,0,0
3,3845.64,3953.85,4225.64,4365.64,4471.79,4601.54,4483.08,4477.95,4184.62,4491.79,4861.54,4522.05,4276.92,4587.18,1691,1673,9.543,0,0,0,0
4,3847.69,3961.03,4229.74,4366.15,4483.59,4592.82,4475.38,4475.38,4185.64,4487.69,4861.03,4520.51,4280.51,4587.18,1691,1675,9.55,0,0,0,0
5,3849.23,3964.1,4228.72,4367.69,4484.1,4590.77,4476.92,4476.41,4186.15,4485.13,4861.03,4520,4281.03,4585.64,1693,1674,9.557,0,0,0,0
6,3849.74,3962.05,4227.69,4366.67,4501.54,4588.21,4476.92,4471.79,4184.1,4488.21,4860.51,4519.49,4285.13,4589.23,1693,1676,9.565,0,0,0,0
7,3849.23,3960,4229.74,4357.95,4512.31,4581.54,4468.72,4464.62,4183.08,4479.49,4860,4518.46,4291.79,4590.26,1693,1675,9.574,0,0,0,0
8,3848.72,3958.97,4228.72,4345.13,4484.62,4584.62,4461.03,4467.18,4186.15,4471.28,4859.49,4520.51,4292.31,4589.23,1693,1674,9.582,0,0,0,0
9,3851.79,3963.08,4229.23,4334.36,4461.54,4596.41,4464.62,4474.36,4195.38,4485.64,4865.64,4524.62,4293.85,4596.92,1694,1674,9.59,0,0,0,0
10,3854.36,3970.26,4228.72,4336.41,4470.26,4595.9,4470.77,4476.41,4206.15,4497.44,4870.26,4523.59,4296.92,4596.92,1692,1676,9.597,0,0,0,0
11,3849.74,3970.26,4225.64,4329.74,4483.08,4586.15,4466.67,4475.9,4205.13,4491.28,4862.56,4520.51,4295.38,4586.15,1695,1677,9.604,0,0,0,0
12,3845.64,3968.21,4223.08,4266.67,4486.15,4584.1,4461.03,4477.95,4202.05,4490.26,4861.54,4523.59,4295.38,4583.59,1695,1678,9.613,0,0,0,0
13,3846.67,3969.74,4221.54,4174.36,4494.87,4586.15,4463.59,4478.46,4208.21,4487.69,4860.51,4520,4293.85,4585.64,1696,1679,9.621,0,0,0,0
14,3846.67,3974.36,4221.54,4130.77,4498.46,4584.1,4462.56,4477.95,4214.36,4481.03,4848.72,4510.26,4288.72,4583.59,1696,1678,9.629,0,0,0,0
15,3845.13,3971.79,4220.51,4130.26,4482.56,4585.13,4458.97,4476.92,4220,4485.13,4848.72,4507.69,4287.18,4585.64,1696,1680,9.636,0,0,0,0
16,3845.64,3962.05,4219.49,4123.08,4466.15,4588.21,4458.97,4476.41,4229.23,4483.08,4858.46,4509.74,4289.23,4585.64,1698,1679,9.644,0,0,0,0
17,3844.62,3956.41,4222.56,4116.92,4467.69,4583.59,4456.92,4475.38,4240,4476.41,4861.03,4513.33,4294.36,4585.64,1697,1680,9.652,0,0,0,0
18,3847.18,3958.46,4222.56,4125.13,4478.46,4574.36,4455.9,4476.92,4253.33,4482.05,4861.03,4518.97,4298.97,4594.87,1698,1680,9.66,0,0,0,0
19,3854.36,3963.08,4221.03,4125.64,4481.03,4572.82,4457.95,4487.69,4261.54,4493.33,4863.08,4523.59,4301.03,4600.51,1698,1680,9.668,0,0,0,0
20,3853.33,3969.23,4226.15,4121.03,4485.13,4574.87,4458.97,4489.74,4254.87,4495.38,4863.08,4526.67,4300,4599.49,1698,1681,9.676,0,0,0,0
21,3848.72,3972.31,4228.21,4125.64,4494.36,4573.33,4457.44,4476.92,4243.59,4488.72,4860.51,4525.64,4296.41,4598.97,1698,1681,9.684,0,0,0,0
22,3850.26,3962.56,4223.08,4129.74,4492.82,4574.36,4456.92,4477.44,4236.92,4490.26,4860,4523.08,4294.36,4598.97,1699,1681,9.69,0,0,0,0
23,3852.82,3957.44,4225.13,4132.82,4480,4584.1,4460.51,4496.92,4222.05,4500.51,4861.54,4526.67,4300,4600,1698,1680,9.699,0,0,0,0
24,3855.38,3968.72,4229.23,4135.38,4477.44,4584.62,4461.03,4496.41,4204.62,4500,4863.59,4528.72,4305.64,4602.56,1698,1681,9.707,0,0,0,0
25,3856.41,3973.85,4226.67,4136.41,4485.13,4573.33,4456.41,4475.9,4194.87,4488.21,4862.56,4524.1,4307.18,4602.05,1698,1679,9.715,0,0,0,0
26,3857.44,3973.85,4226.15,4135.9,4492.31,4573.85,4455.9,4475.38,4199.49,4489.74,4863.59,4525.13,4308.72,4601.54,1696,1681,9.722,0,0,0,0
27,3861.03,3983.08,4229.74,4135.9,4504.1,4581.03,4459.49,4491.28,4213.33,4493.85,4864.1,4526.67,4307.18,4603.59,1697,1679,9.73,0,0,0,0
28,3860.51,3986.67,4233.85,4137.95,4501.54,4582.56,4458.97,4490.26,4218.97,4489.23,4858.97,4522.56,4297.44,4602.56,1696,1681,9.738,0,0,0,0
29,3849.74,3975.38,4226.67,4135.9,4481.03,4581.03,4452.82,4475.38,4214.87,4488.72,4858.97,4520.51,4296.41,4598.97,1697,1682,9.746,0,0,0,0
30,3842.56,3970.26,4214.87,4129.23,4482.05,4575.9,4447.18,4473.33,4212.31,4484.62,4858.46,4519.49,4301.03,4597.44,1697,1682,9.754,0,0,0,0
31,3850.77,3977.95,4217.95,4129.74,4492.82,4572.31,4443.59,4475.38,4212.31,4471.79,4849.23,4519.49,4298.46,4598.97,1697,1682,9.762,0,0,0,0
32,3858.97,3982.56,4223.08,4135.38,4491.28,4572.31,4447.69,4473.33,4214.36,4473.33,4848.21,4522.05,4302.05,4600,1698,1681,9.769,0,0,0,0
33,3857.44,3981.03,4224.62,4132.82,4503.08,4570.77,4457.44,4483.08,4218.46,4490.26,4862.05,4524.62,4314.36,4599.49,1698,1682,9.777,0,0,0,0
34,3857.95,3984.1,4227.18,4128.21,4511.28,4573.85,4458.97,4486.67,4216.41,4491.79,4866.15,4527.69,4316.92,4602.05,1699,1683,9.785,0,0,0,0
35,3859.49,3985.64,4225.13,4131.79,4500.51,4587.18,4456.41,4476.41,4213.33,4479.49,4854.36,4526.15,4311.28,4602.05,1699,1684,9.793,0,0,0,0
36,3854.36,3976.92,4218.97,4131.28,4496.92,4587.18,4458.97,4478.97,4215.38,4474.36,4843.08,4513.33,4307.69,4593.33,1701,1686,9.801,0,0,0,0
37,3848.21,3970.77,4215.9,4122.56,4497.44,4574.36,4462.05,4489.74,4215.9,4476.92,4843.08,4506.67,4306.67,4585.64,1702,1686,9.808,0,0,0,0
38,3844.62,3970.77,4211.79,4115.9,4488.72,4571.28,4460,4489.23,4217.44,4485.13,4852.82,4516.92,4316.41,4588.21,1701,1686,9.816,0,0,0,0
39,3842.56,3963.59,4204.62,4113.85,4487.18,4571.79,4460,4488.21,4223.08,4490.77,4857.44,4522.05,4328.72,4590.77,1703,1686,9.823,0,0,0,0
40,3841.03,3956.41,4199.49,4112.31,4494.36,4568.72,4459.49,4492.82,4220,4477.95,4842.56,4510.77,4321.03,4585.13,1702,1685,9.832,0,0,0,0
41,3838.46,3961.54,4200.51,4110.77,4494.87,4567.69,4457.95,4490.77,4218.46,4464.1,4826.67,4503.08,4307.69,4581.03,1704,1686,9.839,0,0,0,0
42,3840.51,3966.15,4205.64,4106.15,4488.21,4572.82,4459.49,4488.21,4233.85,4469.74,4833.33,4506.67,4307.69,4581.54,1704,1687,9.847,0,0,0,0
43,3846.15,3961.03,4208.72,4107.18,4489.23,4573.85,4456.92,4488.72,4250.26,4475.9,4845.13,4509.23,4312.31,4584.1,1705,1689,9.855,0,0,0,0
44,3843.59,3955.38,4203.08,4110.26,4492.31,4568.21,4452.31,4490.77,4249.74,4474.87,4837.95,4508.72,4312.31,4584.62,1706,1689,9.862,0,0,0,0
45,3834.87,3953.85,4196.41,4105.64,4484.62,4566.67,4456.41,4492.31,4238.97,4472.82,4827.69,4505.64,4307.69,4576.41,1706,1691,9.87,0,0,0,0
46,3834.87,3956.41,4197.95,4104.62,4483.59,4566.67,4455.9,4482.56,4231.79,4459.49,4827.69,4502.05,4300,4569.23,1708,1689,9.879,0,0,0,0
47,3842.56,3960.51,4200.51,4111.79,4494.36,4564.1,4448.21,4475.9,4231.79,4454.36,4831.28,4504.1,4299.49,4573.33,1708,1690,9.886,0,0,0,0
48,3844.1,3962.05,4200.51,4111.79,4492.82,4565.13,4449.74,4487.18,4234.87,4471.79,4835.38,4507.69,4305.64,4583.59,1709,1690,9.893,0,0,0,0
49,3841.03,3959.49,4200,4110.26,4487.18,4570.26,4454.87,4494.36,4232.82,4474.87,4835.9,4507.18,4304.1,4585.64,1709,1690,9.901,0,0,0,0
50,3839.49,3959.49,4196.41,4117.95,4490.77,4571.79,4449.74,4482.05,4228.72,4457.44,4824.1,4504.62,4296.41,4576.41,1709,1692,9.91,0,0,0,0
51,3841.03,3966.15,4197.44,4124.62,4493.85,4563.59,4444.1,4471.28,4224.1,4455.9,4816.41,4503.59,4291.28,4569.23,1709,1692,9.917,0,0,0,0
52,3842.56,3972.31,4202.56,4121.54,4493.33,4558.46,4446.15,4475.9,4214.87,4464.1,4826.67,4506.15,4290.26,4575.9,1709,1693,9.925,0,0,0,0
53,3845.64,3974.87,4200.51,4120,4494.87,4565.64,4445.13,4477.95,4205.13,4461.03,4832.82,4507.69,4292.82,4586.15,1709,1692,9.933,0,0,0,0
54,3849.74,3972.82,4201.03,4122.56,4492.82,4568.72,4443.59,4473.33,4201.54,4461.54,4828.21,4508.21,4295.9,4586.15,1709,1693,9.94,0,0,0,0
55,3849.23,3973.33,4211.79,4122.05,4492.82,4564.1,4450.77,4477.95,4205.64,4472.82,4835.38,4515.38,4298.97,4590.77,1709,1693,9.949,0,0,0,0
56,3849.23,3974.87,4209.23,4119.49,4501.03,4563.08,4454.36,4486.67,4205.13,4475.9,4841.54,4520,4295.38,4598.46,1708,1695,9.957,0,0,0,0
57,3847.69,3971.28,4197.44,4117.95,4505.13,4564.1,4450.26,4485.64,4200.51,4467.18,4828.72,4515.9,4288.72,4592.31,1709,1694,9.965,0,0,0,0
58,3846.67,3973.85,4204.1,4119.49,4508.21,4567.18,4452.82,4488.72,4198.97,4475.9,4831.79,4516.92,4297.44,4592.31,1707,1695,9.974,0,0,0,0
59,3847.69,3973.85,4209.23,4119.49,4503.08,4570.77,4453.85,4493.85,4187.18,4488.21,4847.18,4513.85,4309.23,4600,1708,1695,9.982,0,0,0,0
60,3846.67,3966.67,4198.46,4114.87,4487.69,4564.1,4443.59,4483.59,4167.18,4480,4841.03,4503.59,4302.56,4595.9,1707,1693,9.988,0,0,0,0
61,3870.26,3996.92,4221.03,4129.23,4527.69,4583.08,4464.62,4498.46,4181.54,4502.56,4858.46,4532.82,4322.05,4617.44,1706,1693,9.996,0,0,0,0
62,3916.92,4062.56,4283.08,4164.62,4608.21,4641.03,4519.49,4555.9,4223.59,4567.69,4920.51,4595.38,4377.95,4680,1707,1692,10.004,0,0,0,0
63,3937.44,4091.79,4309.74,4178.46,4626.15,4673.85,4546.15,4593.33,4240,4600,4953.33,4626.67,4406.67,4714.87,1706,1693,10.012,0,0,0,0
64,3924.1,4078.46,4292.31,4164.1,4596.41,4666.67,4538.46,4582.05,4231.79,4587.69,4944.62,4618.46,4398.97,4703.59,1706,1692,10.02,0,0,0,0
65,3912.82,4071.79,4282.56,4156.41,4597.44,4663.59,4536.92,4570.26,4230.77,4581.54,4937.44,4607.18,4390.26,4691.79,1706,1693,10.028,0,0,0,0
66,3910.26,4074.36,4285.13,4157.44,4616.92,4668.72,4539.49,4574.36,4226.67,4577.44,4929.74,4604.62,4380,4689.23,1706,1691,10.035,0,0,0,0
67,3913.33,4075.38,4284.62,4158.97,4616.92,4665.64,4534.87,4574.36,4214.87,4565.64,4920,4607.18,4373.33,4687.69,1705,1692,10.043,0,0,0,0
68,3922.56,4085.13,4288.72,4161.54,4608.72,4661.54,4533.33,4575.38,4220.51,4572.31,4926.15,4615.9,4383.08,4696.41,1707,1690,10.051,0,0,0,0
69,3924.62,4090.77,4297.44,4162.05,4610.26,4656.92,4530.26,4582.56,4229.74,4586.67,4936.41,4621.03,4392.82,4705.13,1705,1690,10.059,0,0,0,0
70,3921.03,4083.59,4296.41,4153.85,4618.46,4657.44,4524.62,4586.67,4222.56,4588.21,4938.97,4618.46,4391.28,4700.51,1707,1691,10.067,0,0,0,0
71,3916.92,4074.36,4286.67,4141.03,4611.28,4659.49,4524.62,4577.95,4213.85,4583.59,4934.87,4609.74,4387.69,4689.74,1706,1692,10.074,0,0,0,0
72,3914.87,4072.82,4285.13,4140,4596.92,4654.87,4525.13,4570.77,4215.38,4584.62,4932.31,4604.1,4387.69,4687.18,1706,1694,10.082,0,0,0,0
73,3919.49,4082.05,4292.82,4146.15,4600.51,4656.41,4523.59,4577.44,4218.97,4591.28,4937.95,4611.28,4391.28,4692.31,1706,1693,10.09,0,0,0,0
74,3922.05,4088.72,4296.41,4141.54,4612.31,4662.05,4524.1,4581.03,4215.38,4586.15,4935.38,4613.85,4389.23,4690.77,1705,1694,10.1,0,0,0,0
75,3913.33,4079.49,4291.28,4133.33,4626.15,4660,4525.13,4570.77,4204.62,4569.74,4921.03,4602.05,4381.03,4681.54,1706,1691,10.107,0,0,0,0
76,3906.15,4068.72,4289.23,4134.87,4619.49,4662.56,4525.13,4563.08,4190.26,4564.1,4916.41,4599.49,4377.44,4675.9,1704,1690,10.114,0,0,0,0
77,3912.82,4072.31,4292.31,4136.92,4596.41,4672.31,4525.13,4570.26,4185.13,4571.79,4923.59,4610.26,4383.08,4679.49,1704,1690,10.126,0,0,0,0
78,3916.41,4077.44,4292.31,4134.87,4595.9,4671.79,4524.1,4571.79,4185.13,4572.31,4922.05,4609.23,4383.08,4681.03,1703,1691,10.13,0,0,0,0
79,3913.33,4077.44,4287.18,4138.97,4604.1,4666.67,4522.56,4558.97,4179.49,4573.85,4914.36,4598.46,4373.85,4674.36,1703,1693,10.138,0,0,0,0
80,3911.79,4080.51,4287.18,4139.49,4601.03,4661.54,4522.05,4553.85,4179.49,4583.59,4916.41,4597.95,4374.87,4671.28,1701,1693,10.146,0,0,0,0
81,3912.31,4079.49,4292.82,4135.38,4610.26,4653.33,4521.03,4563.59,4184.1,4584.62,4923.08,4607.69,4385.13,4678.97,1703,1694,10.153,0,0,0,0
82,3914.36,4071.79,4292.82,4137.44,4618.97,4645.64,4515.38,4564.62,4178.46,4583.08,4926.15,4612.31,4392.31,4686.67,1702,1693,10.16,0,0,0,0
83,3912.82,4070.77,4286.15,4140.51,4607.69,4637.95,4508.21,4553.33,4168.72,4579.49,4921.03,4604.62,4387.18,4682.05,1701,1695,10.168,0,0,0,0
84,3907.18,4072.31,4282.56,4138.46,4596.41,4631.28,4507.69,4552.31,4168.72,4561.54,4909.23,4597.44,4374.36,4669.74,1702,1694,10.176,0,0,0,0
85,3905.64,4071.28,4280,4140,4597.44,4630.77,4509.74,4553.33,4164.1,4550.26,4902.05,4597.95,4371.28,4663.59,1702,1696,10.184,0,0,0,0
86,3907.69,4073.85,4277.95,4143.59,4607.18,4632.82,4507.69,4542.05,4153.85,4555.38,4908.21,4599.49,4384.1,4665.13,1703,1696,10.192,0,0,0,0
87,3911.28,4073.33,4279.49,4143.59,4616.92,4631.79,4506.67,4536.41,4154.36,4556.41,4911.79,4597.44,4395.38,4667.18,1703,1697,10.199,0,0,0,0
88,3915.9,4068.21,4282.05,4143.59,4617.95,4630.77,4512.31,4544.62,4161.03,4558.46,4906.15,4598.97,4393.85,4665.13,1705,1696,10.207,0,0,0,0
89,3917.95,4069.23,4284.62,4142.56,4618.46,4633.33,4520.51,4554.36,4165.64,4569.23,4909.23,4606.15,4392.82,4663.08,1705,1697,10.215,0,0,0,0
90,3920.51,4077.44,4288.21,4142.05,4622.56,4632.82,4525.13,4557.44,4169.74,4574.36,4917.95,4610.77,4399.49,4664.1,1705,1697,10.223,0,0,0,0
91,3922.56,4078.97,4285.13,4143.59,4623.08,4631.28,4516.41,4556.41,4170.26,4570.26,4918.97,4606.15,4402.05,4664.62,1705,1699,10.231,0,0,0,0
92,3920,4074.36,4280.51,4142.56,4615.9,4637.95,4510.26,4557.44,4169.23,4568.21,4912.82,4601.54,4399.49,4662.05,1706,1699,10.239,0,0,0,0
93,3921.54,4073.85,4283.59,4136.41,4616.92,4643.59,4520,4558.46,4169.74,4571.79,4910.77,4603.59,4400,4660.51,1706,1700,10.247,0,0,0,0
94,3922.56,4075.38,4285.64,4133.33,4630.26,4634.87,4521.03,4556.92,4163.59,4570.26,4909.74,4603.59,4401.03,4656.41,1707,1699,10.254,0,0,0,0
95,3918.97,4073.33,4279.49,4142.56,4635.9,4628.72,4507.69,4556.41,4154.87,4558.97,4899.49,4599.49,4397.44,4647.69,1707,1699,10.263,0,0,0,0
96,3915.9,4066.67,4276.41,4158.97,4624.1,4632.82,4508.21,4555.9,4153.85,4550.77,4890.26,4595.9,4394.36,4644.62,1708,1698,10.271,0,0,0,0
97,3916.41,4063.08,4277.95,4171.28,4615.9,4634.87,4519.49,4555.9,4154.87,4555.38,4896.92,4596.92,4397.44,4647.18,1708,1697,10.279,0,0,0,0
98,3918.97,4066.15,4276.41,4171.79,4620,4630.77,4522.05,4555.9,4148.72,4556.41,4902.56,4599.49,4400.51,4647.18,1709,1697,10.286,0,0,0,0
99,3917.95,4064.62,4273.85,4167.69,4613.33,4628.72,4516.92,4553.33,4137.95,4549.23,4891.79,4597.95,4397.95,4646.15,1708,1697,10.294,0,0,0,0
100,3915.9,4062.05,4277.44,4173.33,4607.18,4625.64,4512.82,4550.77,4135.38,4549.23,4890.26,4596.41,4393.33,4646.15,1709,1697,10.301,0,0,0,0
101,3919.49,4071.28,4280.51,4181.03,4628.21,4616.92,4508.72,4554.36,4140,4554.36,4903.08,4600.51,4395.9,4648.21,1708,1696,10.309,0,0,0,0
102,3921.54,4078.97,4277.44,4178.97,4642.56,4613.85,4508.72,4555.38,4139.49,4551.79,4902.05,4599.49,4397.95,4649.74,1707,1699,10.317,0,0,0,0
103,3916.92,4074.36,4273.33,4177.95,4623.59,4620,4512.82,4547.69,4135.38,4549.74,4887.69,4590.26,4395.38,4647.69,1708,1698,10.325,0,0,0,0
104,3915.38,4073.33,4270.26,4180.51,4611.79,4625.64,4510.77,4544.62,4135.9,4551.28,4881.03,4583.59,4392.82,4644.62,1706,1698,10.332,0,0,0,0
105,3916.92,4075.38,4266.15,4178.97,4620,4626.67,4509.23,4551.28,4140,4553.33,4886.15,4584.62,4393.85,4646.15,1707,1698,10.34,0,0,0,0
106,3910.26,4070.26,4265.13,4177.44,4615.38,4631.79,4514.87,4555.9,4142.56,4555.9,4892.82,4587.18,4400.51,4648.72,1707,1697,10.349,0,0,0,0
107,3908.21,4067.69,4267.18,4182.56,4608.21,4630.26,4515.38,4551.28,4140.51,4558.46,4892.82,4586.15,4408.72,4648.21,1708,1696,10.356,0,0,0,0
108,3911.79,4072.82,4264.62,4183.59,4616.92,4621.03,4506.15,4541.54,4137.44,4556.92,4889.74,4581.54,4405.13,4645.64,1706,1695,10.365,0,0,0,0
109,3909.74,4074.87,4262.05,4181.54,4627.18,4616.41,4500.51,4536.92,4135.9,4554.36,4889.23,4580,4398.46,4645.13,1708,1696,10.371,0,0,0,0
110,3911.28,4070.77,4265.13,4185.13,4623.08,4616.92,4505.13,4535.38,4131.79,4554.87,4891.28,4583.59,4406.67,4647.18,1705,1695,10.379,0,0,0,0
111,3917.95,4068.21,4264.62,4184.62,4616.41,4615.9,4503.59,4534.87,4125.13,4553.85,4890.26,4584.1,4412.82,4648.72,1705,1696,10.387,0,0,0,0
112,3915.38,4067.18,4263.08,4186.15,4620.51,4614.36,4494.87,4534.87,4121.54,4551.79,4888.21,4581.03,4405.13,4648.21,1704,1694,10.395,0,0,0,0
113,3913.85,4067.69,4265.13,4189.23,4622.56,4614.87,4495.9,4533.85,4122.05,4550.77,4887.69,4581.54,4401.54,4648.21,1704,1695,10.403,0,0,0,0
114,3918.97,4072.31,4263.59,4187.18,4617.44,4614.36,4501.03,4534.36,4123.59,4552.31,4888.21,4584.62,4407.69,4652.82,1703,1693,10.411,0,0,0,0
115,3918.46,4076.92,4264.1,4185.13,4623.08,4607.69,4499.49,4537.95,4123.08,4555.9,4888.21,4585.64,4413.85,4658.97,1702,1694,10.417,0,0,0,0
116,3918.97,4073.33,4267.69,4185.64,4627.69,4604.62,4498.97,4536.41,4120,4555.9,4887.69,4584.1,4412.31,4660.51,1703,1694,10.426,0,0,0,0
117,3921.54,4065.64,4266.15,4185.13,4614.87,4611.79,4504.62,4533.85,4118.46,4554.36,4888.72,4584.62,4410.26,4661.03,1703,1694,10.434,0,0,0,0
118,3918.46,4067.18,4264.62,4183.08,4610.77,4612.31,4507.18,4539.49,4120,4555.9,4891.28,4585.64,4420,4663.59,1703,1694,10.442,0,0,0,0
119,3917.44,4074.87,4267.18,4183.08,4619.49,4611.28,4506.15,4542.05,4117.95,4559.49,4896.92,4585.13,4430.77,4665.64,1702,1694,10.451,0,0,0,0
120,3922.05,4078.46,4269.74,4185.64,4616.92,4612.31,4503.59,4535.38,4112.31,4558.46,4900,4584.62,4429.23,4665.64,1702,1694,10.458,0,0,0,0
121,3921.54,4079.49,4271.28,4192.82,4615.38,4606.15,4498.46,4535.38,4109.74,4556.41,4897.44,4584.62,4424.62,4665.13,1701,1694,10.466,0,0,0,0
122,3918.97,4082.56,4269.23,4193.33,4620,4602.56,4495.38,4536.92,4114.87,4560,4900,4586.15,4426.67,4665.64,1702,1695,10.473,0,0,0,0
123,3924.62,4082.05,4270.77,4193.33,4622.05,4607.69,4492.31,4528.72,4121.03,4571.28,4903.59,4589.23,4428.21,4665.13,1701,1692,10.481,0,0,0,0
124,3926.67,4077.95,4277.95,4196.41,4632.82,4602.56,4489.74,4523.08,4118.46,4573.85,4897.95,4589.74,4427.18,4666.67,1700,1694,10.49,0,0,0,0
125,3923.59,4078.97,4276.92,4194.36,4635.9,4597.44,4490.26,4525.13,4113.33,4560.51,4891.79,4587.18,4426.15,4664.62,1702,1693,10.497,0,0,0,0
126,3922.56,4080,4267.69,4194.87,4618.46,4606.67,4491.28,4524.62,4117.95,4557.95,4894.36,4585.64,4428.21,4661.54,1701,1694,10.504,0,0,0,0
127,3921.54,4078.97,4265.13,4195.9,4609.74,4613.33,4495.9,4525.13,4122.05,4570.77,4893.33,4587.69,4427.69,4661.03,1702,1694,10.512,0,0,0,0
128,3915.38,4075.9,4264.62,4193.85,4627.69,4609.74,4502.05,4528.21,4115.38,4570.26,4890.77,4584.62,4417.95,4655.38,1702,1693,10.52,0,0,0,0
0,3907.69,4068.21,4259.49,4191.79,4633.85,4608.21,4504.1,4530.26,4114.36,4556.41,4886.67,4572.82,4408.72,4646.15,1702,1694,10.528,0,0,0,0
1,3909.74,4066.15,4260.51,4191.79,4618.46,4611.28,4505.64,4535.38,4122.05,4554.36,4880.51,4570.77,4410.77,4644.62,1702,1693,10.536,0,0,0,0
2,3915.9,4073.85,4262.56,4195.38,4622.56,4610.77,4507.69,4538.97,4124.62,4561.03,4881.03,4581.54,4415.38,4649.74,1702,1694,10.544,0,0,0,0
3,3916.41,4073.33,4261.03,4196.92,4634.36,4604.62,4501.03,4528.72,4121.03,4558.97,4881.03,4579.49,4412.82,4649.74,1702,1693,10.551,0,0,0,0
4,3914.36,4064.1,4262.56,4195.38,4623.08,4603.08,4496.92,4518.97,4112.82,4552.82,4875.38,4568.21,4409.74,4645.64,1702,1693,10.558,0,0,0,0
5,3910.26,4063.59,4263.59,4193.33,4608.72,4606.15,4501.54,4521.03,4110.77,4554.87,4876.92,4568.72,4410.77,4646.67,1702,1692,10.567,0,0,0,0
6,3906.15,4064.1,4263.08,4198.46,4620,4602.56,4503.08,4523.59,4115.38,4556.92,4876.41,4571.79,4406.67,4646.67,1702,1693,10.575,0,0,0,0
7,3907.18,4060,4262.05,4201.03,4633.85,4594.87,4504.1,4521.54,4108.72,4544.62,4865.64,4568.21,4394.87,4640,1703,1693,10.583,0,0,0,0
8,3908.72,4062.05,4263.08,4198.46,4630.26,4594.36,4503.08,4521.54,4106.15,4538.46,4866.67,4567.69,4394.87,4637.44,1700,1693,10.59,0,0,0,0
9,3907.69,4067.18,4263.08,4202.56,4630.77,4596.92,4495.9,4521.54,4117.44,4550.77,4877.44,4569.23,4408.21,4644.62,1702,1693,10.598,0,0,0,0
10,3907.69,4067.18,4262.56,4206.67,4631.28,4596.41,4493.33,4520,4120.51,4558.46,4878.97,4570.26,4414.87,4649.74,1701,1693,10.606,0,0,0,0
11,3907.18,4066.67,4263.08,4207.69,4623.59,4598.46,4503.59,4520,4112.82,4555.9,4877.44,4572.31,4413.33,4649.74,1701,1694,10.615,0,0,0,0
12,3906.15,4066.15,4265.64,4205.13,4616.92,4601.54,4510.26,4521.03,4110.26,4556.92,4876.41,4571.28,4411.79,4648.21,1701,1693,10.622,0,0,0,0
13,3906.15,4062.56,4262.05,4200,4614.36,4596.92,4506.15,4523.08,4107.18,4558.46,4875.9,4568.21,4411.79,4646.15,1701,1694,10.631,0,0,0,0
14,3905.13,4058.97,4254.36,4201.03,4624.1,4584.1,4504.1,4519.49,4103.08,4553.33,4874.36,4565.64,4411.28,4645.13,1701,1693,10.638,0,0,0,0
15,3905.13,4058.97,4254.36,4208.21,4632.82,4580.51,4505.13,4510.26,4104.1,4552.82,4874.36,4565.13,4410.26,4649.23,1701,1693,10.646,0,0,0,0
16,3903.59,4060,4256.92,4209.74,4625.64,4583.59,4502.56,4507.69,4103.59,4553.33,4874.36,4565.13,4411.79,4647.69,1702,1692,10.653,0,0,0,0
17,3900,4059.49,4251.28,4207.69,4617.44,4577.95,4494.36,4503.59,4089.23,4544.1,4867.69,4560.51,4406.67,4637.95,1702,1693,10.661,0,0,0,0
18,3900.51,4058.46,4245.13,4211.28,4619.49,4570.77,4488.72,4496.92,4076.41,4533.33,4857.95,4553.85,4394.87,4633.33,1703,1691,10.668,0,0,0,0
19,3904.1,4060.51,4248.72,4216.92,4620,4571.79,4492.31,4500,4081.03,4533.85,4857.44,4557.44,4388.72,4639.49,1704,1693,10.676,0,0,0,0
20,3904.1,4061.54,4255.9,4215.38,4612.82,4574.87,4494.36,4504.62,4086.15,4543.08,4862.05,4568.21,4394.36,4644.62,1705,1693,10.684,0,0,0,0
21,3905.13,4061.03,4257.95,4213.85,4620,4573.85,4489.74,4503.08,4083.59,4551.28,4868.21,4570.77,4403.08,4645.64,1705,1694,10.692,0,0,0,0
22,3911.28,4068.72,4260.51,4216.92,4644.1,4569.74,4491.79,4507.18,4090.26,4556.92,4876.41,4568.72,4411.28,4650.77,1705,1695,10.7,0,0,0,0
23,3911.79,4075.9,4263.59,4222.05,4645.13,4575.38,4500.51,4515.38,4098.97,4560.51,4879.49,4570.77,4413.85,4654.36,1706,1695,10.708,0,0,0,0
24,3904.62,4069.23,4258.46,4222.56,4620.51,4586.15,4498.97,4511.28,4091.79,4558.46,4875.38,4567.69,4405.13,4649.74,1706,1695,10.716,0,0,0,0
25,3903.59,4057.95,4249.74,4218.97,4619.49,4583.59,4495.38,4507.69,4086.67,4551.28,4872.82,4558.46,4395.38,4645.13,1705,1695,10.723,0,0,0,0
26,3903.08,4053.85,4250.26,4215.9,4635.38,4570.77,4503.08,4514.87,4094.36,4553.33,4872.31,4555.38,4395.9,4644.62,1707,1694,10.731,0,0,0,0
27,3899.49,4050.26,4253.33,4217.95,4625.64,4569.23,4508.72,4516.41,4097.44,4558.46,4874.36,4557.95,4397.95,4646.15,1705,1696,10.739,0,0,0,0
28,3903.08,4051.79,4250.26,4225.64,4616.41,4573.33,4505.64,4504.1,4088.21,4548.21,4873.33,4557.44,4391.79,4647.18,1706,1696,10.747,0,0,0,0
29,3908.21,4060.51,4249.74,4230.26,4629.23,4570.26,4498.97,4495.38,4080,4540.51,4864.62,4555.38,4386.15,4646.67,1705,1694,10.754,0,0,0,0
30,3899.49,4061.03,4249.23,4225.13,4637.95,4565.64,4496.41,4500.51,4084.1,4551.28,4860,4552.31,4390.77,4645.13,1705,1695,10.761,0,0,0,0
31,3894.36,4052.31,4245.13,4212.82,4629.74,4565.64,4500.51,4504.1,4089.23,4559.49,4868.21,4552.31,4397.95,4647.69,1705,1694,10.769,0,0,0,0
32,3902.56,4049.23,4246.67,4204.62,4625.64,4570.77,4506.67,4507.69,4095.38,4558.97,4880,4557.95,4400,4652.82,1705,1694,10.778,0,0,0,0
33,3899.49,4051.79,4247.69,4201.03,4635.9,4572.31,4503.59,4509.74,4094.87,4554.36,4874.87,4557.44,4393.85,4651.28,1704,1694,10.786,0,0,0,0
34,3886.67,4048.72,4240.51,4193.33,4631.28,4569.23,4503.59,4500,4079.49,4542.05,4858.46,4543.59,4381.03,4643.59,1704,1694,10.794,0,0,0,0
35,3889.74,4045.13,4232.31,4186.67,4615.38,4565.64,4508.72,4491.28,4070.26,4535.38,4854.36,4535.9,4371.79,4636.41,1704,1694,10.802,0,0,0,0
36,3895.9,4045.64,4230.77,4184.62,4630.26,4557.95,4506.67,4491.79,4078.46,4541.54,4860,4537.95,4372.31,4633.33,1702,1696,10.81,0,0,0,0
37,3889.74,4045.64,4230.77,4179.49,4644.1,4553.85,4505.13,4491.28,4078.97,4539.49,4855.9,4538.46,4372.82,4631.79,1704,1695,10.817,0,0,0,0
38,3887.69,4043.08,4230.26,4175.9,4630.77,4557.95,4507.69,4488.21,4068.72,4536.92,4847.18,4537.95,4373.85,4636.41,1702,1696,10.825,0,0,0,0
39,3891.79,4039.49,4231.79,4178.97,4630.77,4554.36,4507.69,4487.18,4064.62,4538.46,4846.67,4538.97,4374.36,4641.03,1704,1696,10.833,0,0,0,0
40,3889.23,4032.82,4233.85,4180,4635.9,4556.92,4507.69,4488.72,4063.59,4530.26,4845.64,4540,4368.21,4635.38,1702,1695,10.84,0,0,0,0
41,3885.64,4030.77,4232.31,4179.49,4628.21,4567.69,4508.21,4492.31,4060.51,4522.05,4841.03,4539.49,4363.59,4628.72,1703,1696,10.849,0,0,0,0
42,3887.69,4042.05,4232.82,4187.18,4640.51,4564.1,4506.67,4487.18,4058.46,4522.56,4838.46,4537.95,4364.1,4631.28,1703,1694,10.857,0,0,0,0
43,3888.72,4046.67,4240,4189.74,4646.67,4558.97,4504.1,4476.41,4055.38,4520.51,4839.49,4535.9,4367.18,4634.87,1702,1694,10.864,0,0,0,0
44,3887.18,4037.44,4241.03,4182.56,4625.13,4567.18,4506.15,4475.9,4057.44,4524.1,4844.1,4537.44,4374.36,4640.51,1703,1692,10.872,0,0,0,0
45,3887.69,4039.49,4236.41,4183.08,4631.28,4571.79,4509.23,4479.49,4065.13,4536.92,4848.72,4540,4379.49,4644.1,1704,1695,10.88,0,0,0,0
46,3884.62,4046.67,4236.41,4186.15,4654.36,4566.15,4508.21,4477.44,4059.49,4534.36,4846.15,4538.46,4371.79,4636.41,1705,1696,10.887,0,0,0,0
47,3880.51,4036.41,4236.92,4181.03,4633.85,4564.1,4507.18,4472.82,4046.15,4520,4840.51,4536.41,4361.54,4629.23,1705,1697,10.895,0,0,0,0
48,3885.64,4030.26,4233.85,4177.44,4622.56,4559.49,4508.72,4473.85,4050.26,4519.49,4841.03,4537.95,4364.62,4632.31,1706,1696,10.903,0,0,0,0
49,3888.72,4042.05,4231.28,4182.56,4658.46,4551.79,4508.72,4476.92,4061.54,4529.74,4844.62,4540,4371.79,4632.82,1704,1695,10.911,0,0,0,0
50,3883.08,4046.15,4234.87,4184.1,4655.9,4555.38,4507.69,4476.92,4060,4534.36,4843.59,4537.44,4368.72,4629.23,1705,1693,10.919,0,0,0,0
51,3881.54,4042.56,4238.97,4179.49,4611.79,4567.18,4508.21,4478.46,4058.46,4536.41,4842.56,4536.92,4366.67,4633.33,1702,1691,10.926,0,0,0,0
52,3887.69,4044.1,4235.9,4183.59,4614.36,4572.82,4509.74,4486.67,4063.59,4536.92,4845.64,4540.51,4372.82,4644.62,1701,1693,10.934,0,0,0,0
53,3889.23,4044.62,4236.41,4188.21,4649.23,4566.15,4508.21,4489.23,4061.54,4528.72,4847.69,4540.51,4372.82,4648.72,1701,1692,10.942,0,0,0,0
54,3889.74,4046.15,4242.05,4184.1,4639.49,4563.59,4507.18,4487.69,4058.97,4523.08,4847.18,4540,4370.26,4646.67,1699,1693,10.95,0,0,0,0
55,3896.92,4048.72,4243.59,4186.15,4614.36,4569.23,4508.72,4491.79,4064.62,4525.64,4847.69,4542.05,4369.74,4647.18,1700,1694,10.958,0,0,0,0
56,3894.36,4044.1,4238.46,4189.74,4621.03,4560,4506.67,4485.64,4063.08,4523.08,4843.08,4539.49,4362.05,4647.18,1698,1694,10.966,0,0,0,0
57,3886.67,4041.03,4233.33,4187.18,4621.03,4553.85,4502.05,4472.82,4057.44,4518.46,4837.44,4533.85,4358.46,4644.1,1699,1694,10.973,0,0,0,0
58,3889.23,4046.67,4238.97,4185.64,4612.82,4563.08,4503.59,4475.9,4062.56,4524.1,4840,4535.38,4365.64,4643.59,1698,1693,10.98,0,0,0,0
59,3891.79,4047.69,4245.13,4186.67,4627.69,4563.59,4507.69,4480,4064.1,4525.13,4843.59,4541.54,4367.69,4644.1,1699,1694,10.989,0,0,0,0
60,3886.67,4043.59,4241.03,4184.62,4634.87,4553.85,4505.13,4475.9,4056.92,4509.23,4841.03,4542.05,4365.13,4639.49,1699,1693,10.997,0,0,0,0
61,3885.13,4043.59,4237.95,4183.08,4625.13,4553.85,4504.62,4482.05,4056.92,4504.1,4839.49,4540,4366.67,4632.82,1700,1693,11.004,0,0,0,0
62,3890.26,4047.18,4247.18,4186.15,4635.38,4562.56,4508.21,4491.79,4060,4515.9,4842.56,4546.15,4368.72,4630.26,1700,1692,11.013,0,0,0,0
63,3892.82,4049.74,4250.77,4188.21,4644.62,4567.69,4508.72,4492.31,4057.95,4515.38,4843.59,4553.85,4372.31,4632.31,1700,1693,11.027,0,0,0,0
64,3891.28,4050.77,4244.1,4185.64,4628.21,4569.74,4508.21,4491.79,4058.97,4505.64,4840.51,4553.33,4375.38,4633.33,1701,1692,11.031,0,0,0,0
65,3895.38,4054.87,4245.13,4186.15,4626.67,4567.18,4508.21,4492.31,4060.51,4510.77,4841.54,4551.28,4372.31,4632.31,1700,1694,11.035,0,0,0,0
66,3900.51,4058.46,4247.69,4189.74,4638.97,4567.18,4508.72,4489.23,4059.49,4522.56,4842.05,4553.85,4371.79,4631.79,1702,1695,11.044,0,0,0,0
67,3899.49,4059.49,4244.62,4186.67,4636.92,4572.82,4508.72,4489.74,4059.49,4521.03,4833.33,4553.33,4372.82,4632.31,1701,1694,11.051,0,0,0,0
68,3900.51,4063.08,4243.59,4188.72,4637.95,4574.36,4507.69,4486.15,4054.87,4521.03,4832.82,4551.28,4373.33,4633.33,1701,1694,11.059,0,0,0,0
69,3906.67,4067.18,4246.15,4197.44,4648.72,4564.62,4504.1,4475.38,4049.23,4527.18,4841.54,4553.33,4373.33,4634.36,1702,1692,11.066,0,0,0,0
70,3906.15,4065.13,4246.15,4194.87,4653.85,4554.36,4502.56,4474.36,4050.26,4525.13,4837.95,4549.23,4371.28,4634.36,1702,1692,11.075,0,0,0,0
71,3895.9,4057.44,4244.1,4191.28,4645.64,4560.51,4504.62,4475.9,4050.77,4513.33,4828.21,4538.46,4363.08,4629.74,1702,1692,11.084,0,0,0,0
72,3891.79,4052.31,4239.49,4191.79,4628.21,4571.79,4505.13,4472.31,4050.77,4503.59,4828.21,4536.41,4357.44,4623.59,1704,1694,11.091,0,0,0,0
73,3900,4055.38,4240.51,4193.33,4624.1,4572.82,4506.67,4480.51,4052.82,4508.21,4832.31,4541.54,4363.08,4625.64,1705,1694,11.099,0,0,0,0
74,3906.15,4064.1,4245.64,4196.41,4635.9,4571.79,4507.69,4488.21,4054.36,4520,4831.79,4542.05,4368.72,4628.21,1706,1693,11.107,0,0,0,0
75,3900,4062.56,4244.1,4197.44,4639.49,4574.87,4505.13,4478.97,4055.9,4520.51,4830.26,4538.97,4364.62,4620,1706,1693,11.115,0,0,0,0
76,3894.87,4057.95,4239.49,4193.85,4634.87,4573.33,4503.59,4473.33,4058.46,4518.46,4829.23,4538.97,4362.05,4615.38,1706,1693,11.122,0,0,0,0
77,3900,4064.62,4237.95,4196.92,4626.15,4570.26,4505.13,4478.46,4061.03,4523.08,4831.79,4538.97,4369.74,4618.97,1705,1694,11.131,0,0,0,0
78,3901.03,4066.15,4237.44,4203.08,4615.9,4569.74,4503.59,4476.41,4058.46,4517.95,4832.31,4535.9,4370.26,4619.49,1706,1695,11.139,0,0,0,0
79,3892.82,4061.54,4231.79,4200.51,4622.05,4567.18,4495.38,4472.31,4053.33,4507.18,4827.18,4534.36,4364.1,4613.85,1705,1695,11.147,0,0,0,0
80,3893.33,4065.13,4231.28,4198.97,4636.41,4565.13,4488.72,4473.85,4051.79,4510.26,4827.18,4534.87,4367.69,4614.87,1706,1697,11.154,0,0,0,0
81,3904.62,4074.36,4240,4207.69,4633.33,4566.15,4495.38,4473.33,4057.44,4522.56,4834.87,4536.41,4377.44,4623.59,1705,1695,11.162,0,0,0,0
82,3909.74,4080.51,4248.21,4211.79,4628.72,4570.26,4505.13,4480,4071.79,4534.87,4846.67,4543.08,4390.77,4632.31,1705,1696,11.169,0,0,0,0
83,3905.13,4075.38,4248.72,4206.67,4633.85,4570.77,4506.15,4488.21,4073.33,4530.26,4848.72,4552.31,4396.92,4634.87,1707,1694,11.177,0,0,0,0
84,3904.62,4063.08,4244.62,4204.1,4628.72,4567.69,4504.1,4481.54,4057.95,4509.23,4836.92,4553.33,4389.23,4633.33,1705,1696,11.185,0,0,0,0
85,3901.03,4057.95,4245.64,4204.62,4615.9,4567.69,4502.56,4472.31,4048.21,4501.54,4826.67,4544.1,4376.41,4629.23,1707,1695,11.194,0,0,0,0
86,3895.9,4059.49,4245.13,4205.64,4605.64,4567.69,4502.56,4473.33,4052.82,4509.23,4824.62,4538.46,4373.33,4624.62,1707,1694,11.202,0,0,0,0
87,3901.03,4060,4244.62,4208.72,4613.33,4562.05,4500.51,4475.38,4054.87,4509.23,4832.82,4547.69,4378.97,4631.28,1708,1696,11.208,0,0,0,0
88,3906.67,4065.13,4249.23,4214.36,4628.21,4554.36,4495.9,4471.79,4050.77,4505.13,4840.51,4553.85,4383.08,4642.05,1708,1695,11.216,0,0,0,0
89,3905.13,4067.18,4248.21,4215.9,4625.13,4554.36,4493.85,4470.26,4054.36,4509.74,4841.54,4544.62,4383.08,4640.51,1709,1695,11.224,0,0,0,0
90,3901.54,4062.05,4242.05,4209.74,4616.41,4561.54,4493.85,4471.79,4057.95,4511.79,4841.54,4536.92,4379.49,4633.85,1707,1694,11.233,0,0,0,0
91,3900.51,4061.03,4243.59,4207.69,4610.26,4570.26,4492.31,4476.41,4058.97,4507.69,4837.95,4540,4376.92,4633.33,1707,1695,11.239,0,0,0,0
92,3899.49,4062.05,4247.18,4209.23,4598.46,4569.23,4492.82,4477.44,4063.08,4511.79,4830.77,4542.56,4373.33,4634.87,1706,1694,11.248,0,0,0,0
93,3902.56,4061.54,4247.18,4209.23,4601.54,4558.46,4495.9,4473.85,4065.64,4517.44,4828.21,4545.64,4369.74,4634.87,1705,1696,11.255,0,0,0,0
94,3902.05,4064.62,4247.69,4211.28,4626.15,4551.28,4493.33,4473.85,4063.08,4512.31,4833.33,4546.15,4376.41,4633.85,1705,1695,11.263,0,0,0,0
95,3896.92,4063.59,4238.97,4213.85,4621.54,4552.31,4490.26,4468.21,4057.44,4505.13,4831.79,4537.95,4380,4629.23,1704,1696,11.271,0,0,0,0
96,3896.41,4056.41,4230.77,4210.26,4596.92,4553.85,4492.31,4457.95,4056.92,4504.62,4824.1,4533.85,4377.95,4626.67,1705,1696,11.279,0,0,0,0
97,3895.38,4056.41,4236.92,4209.23,4600.51,4553.33,4491.79,4462.56,4060,4506.67,4830.77,4537.44,4380.51,4626.15,1704,1697,11.286,0,0,0,0
98,3893.33,4061.03,4241.54,4217.44,4598.97,4552.82,4489.23,4472.82,4061.54,4506.67,4844.62,4537.44,4388.21,4621.03,1705,1699,11.294,0,0,0,0
99,3896.41,4061.54,4240,4218.97,4587.18,4554.87,4490.77,4473.33,4060,4506.15,4840,4536.92,4389.23,4618.46,1705,1699,11.302,0,0,0,0
100,3901.03,4064.1,4245.64,4214.36,4603.59,4554.87,4492.82,4473.33,4062.56,4512.31,4829.74,4540,4384.1,4626.67,1706,1700,11.31,0,0,0,0
101,3899.49,4065.64,4250.77,4217.95,4612.82,4554.36,4492.31,4475.38,4065.64,4520.51,4840,4543.08,4383.08,4636.41,1706,1700,11.318,0,0,0,0
102,3893.85,4060.51,4245.13,4221.03,4588.21,4561.54,4494.36,4474.87,4064.1,4518.97,4848.72,4542.05,4382.05,4633.85,1708,1699,11.326,0,0,0,0
103,3895.38,4056.41,4242.56,4219.49,4585.64,4567.69,4495.9,4476.41,4069.23,4517.95,4840,4538.97,4376.92,4627.18,1708,1697,11.334,0,0,0,0
104,3897.44,4059.49,4248.72,4223.59,4602.56,4565.13,4496.41,4474.36,4071.28,4520.51,4840.51,4543.59,4375.9,4628.72,1709,1697,11.341,0,0,0,0
105,3895.38,4062.05,4246.67,4225.64,4594.36,4565.64,4502.05,4475.38,4069.23,4523.59,4848.72,4549.74,4385.64,4632.82,1711,1695,11.349,0,0,0,0
106,3895.9,4056.92,4238.46,4221.03,4588.21,4569.23,4506.67,4487.18,4076.92,4534.36,4847.69,4547.69,4386.15,4631.79,1710,1698,11.359,0,0,0,0
107,3896.41,4053.33,4240,4222.56,4603.59,4567.69,4504.1,4491.28,4080.51,4534.36,4849.23,4547.69,4377.95,4629.74,1712,1700,11.365,0,0,0,0
108,3893.33,4055.38,4246.67,4224.1,4603.59,4567.18,4503.08,4486.67,4073.33,4520.51,4858.46,4550.77,4378.97,4631.28,1712,1701,11.372,0,0,0,0
109,3897.95,4060,4248.72,4222.05,4589.74,4571.79,4505.64,4490.77,4081.03,4527.69,4871.79,4552.31,4396.41,4639.49,1712,1703,11.38,0,0,0,0
110,3906.67,4069.23,4254.87,4226.67,4590.77,4571.79,4505.13,4495.38,4093.85,4545.13,4882.56,4560.51,4410.77,4650.77,1713,1703,11.389,0,0,0,0
111,3904.62,4076.41,4259.49,4233.33,4595.9,4569.23,4503.59,4492.31,4089.23,4540.51,4877.95,4565.64,4393.85,4651.79,1712,1702,11.396,0,0,0,0
112,3902.05,4075.38,4257.95,4228.72,4586.67,4573.85,4506.67,4496.92,4086.15,4538.97,4869.23,4564.62,4376.92,4647.18,1712,1700,11.404,0,0,0,0
113,3908.72,4074.36,4259.49,4229.74,4580.51,4582.56,4507.18,4508.21,4099.49,4552.82,4873.33,4568.21,4388.72,4653.33,1712,1699,11.412,0,0,0,0
114,3914.36,4077.95,4265.13,4236.92,4594.36,4581.54,4506.15,4505.13,4109.74,4554.87,4880,4570.77,4398.97,4661.54,1713,1697,11.419,0,0,0,0
115,3908.21,4072.31,4262.56,4234.36,4611.28,4572.31,4508.72,4492.82,4102.05,4542.05,4876.41,4567.69,4386.15,4659.49,1713,1699,11.428,0,0,0,0
116,3900.51,4063.59,4257.44,4230.77,4593.85,4574.87,4501.03,4487.69,4089.74,4534.36,4874.36,4565.64,4383.59,4652.82,1715,1700,11.435,0,0,0,0
117,3902.56,4063.59,4255.9,4231.28,4563.59,4586.15,4493.33,4487.69,4089.74,4535.9,4878.46,4560.51,4397.95,4651.79,1715,1703,11.443,0,0,0,0
118,3902.56,4062.56,4254.87,4234.87,4576.41,4586.67,4500.51,4483.59,4093.33,4533.33,4878.46,4552.82,4397.44,4649.23,1718,1705,11.451,0,0,0,0
119,3898.46,4065.64,4250.26,4235.9,4600,4581.03,4507.18,4484.62,4091.28,4524.1,4874.87,4551.79,4389.74,4643.59,1719,1706,11.46,0,0,0,0
120,3900,4072.82,4246.67,4232.31,4580,4584.62,4505.64,4488.72,4090.77,4520,4872.31,4553.85,4393.33,4644.62,1721,1708,11.466,0,0,0,0
121,3902.05,4070.77,4249.74,4231.28,4564.1,4588.72,4503.59,4484.62,4094.36,4523.08,4872.82,4555.38,4404.1,4648.72,1723,1707,11.474,0,0,0,0
122,3895.9,4060.51,4249.74,4232.82,4578.97,4580.51,4497.95,4478.97,4092.82,4525.64,4875.9,4553.85,4407.18,4644.1,1724,1708,11.482,0,0,0,0
123,3890.26,4057.44,4243.59,4230.77,4572.82,4571.79,4490.26,4480.51,4089.74,4527.69,4886.15,4549.74,4409.23,4637.95,1726,1708,11.49,0,0,0,0
124,3897.44,4063.59,4247.69,4233.85,4554.87,4571.28,4493.33,4486.67,4099.49,4536.92,4901.03,4555.9,4422.56,4645.13,1728,1708,11.497,0,0,0,0
125,3904.1,4068.21,4258.97,4243.08,4556.92,4571.79,4500.51,4492.82,4108.21,4549.23,4913.33,4570.26,4432.82,4657.44,1732,1709,11.505,0,0,0,0
126,3903.59,4069.23,4259.49,4243.59,4562.56,4572.31,4503.59,4490.26,4096.92,4552.82,4918.46,4570.26,4431.28,4658.97,1737,1711,11.513,0,0,0,0
127,3896.41,4068.21,4250.77,4243.08,4570.77,4571.79,4505.64,4479.49,4084.62,4541.03,4908.72,4558.97,4427.18,4651.28,1745,1713,11.521,0,0,0,0
128,3892.31,4066.67,4248.21,4244.1,4570.77,4571.28,4500,4473.85,4089.23,4524.62,4895.38,4549.74,4430.77,4645.64,1763,1720,11.529,0,0,0,0
0,3895.9,4064.62,4248.72,4242.56,4554.87,4572.31,4494.36,4474.36,4089.23,4522.05,4900,4547.69,4441.03,4645.64,1776,1724,11.537,0,0,0,0
1,3894.87,4061.54,4246.15,4242.05,4549.74,4572.82,4494.36,4472.82,4080.51,4522.05,4909.23,4548.72,4445.64,4647.69,1791,1730,11.544,0,0,0,0
2,3892.31,4061.03,4245.64,4244.1,4561.03,4569.74,4495.9,4469.74,4080,4519.49,4901.54,4549.74,4446.15,4650.26,1808,1737,11.552,0,0,0,0
3,3894.87,4062.05,4248.72,4247.18,4562.56,4569.23,4500,4472.31,4087.18,4529.23,4907.18,4549.74,4454.36,4654.87,1825,1747,11.56,0,0,0,0
4,3893.33,4061.54,4249.23,4248.21,4547.18,4577.95,4506.15,4483.59,4095.38,4543.08,4930.77,4552.82,4471.28,4657.95,1843,1760,11.568,0,0,0,0
5,3894.87,4063.08,4248.21,4253.85,4543.59,4583.08,4510.26,4494.36,4104.62,4545.13,4934.87,4556.41,4479.49,4661.03,1860,1775,11.576,0,0,0,0
6,3907.18,4076.92,4252.31,4264.62,4552.82,4577.44,4502.05,4491.79,4104.1,4541.54,4922.56,4553.85,4483.08,4669.74,1879,1793,11.584,0,0,0,0
7,3915.9,4094.87,4261.54,4272.31,4554.36,4574.87,4491.28,4481.54,4093.85,4543.08,4933.85,4557.95,4489.23,4678.97,1895,1814,11.591,0,0,0,0
8,3921.54,4109.74,4266.67,4275.38,4555.38,4576.41,4489.74,4476.41,4088.72,4544.62,4949.23,4569.23,4497.95,4688.72,1912,1836,11.599,0,0,0,0
9,3930.26,4120.51,4267.69,4281.03,4570.77,4567.69,4487.18,4468.21,4089.74,4538.97,4942.05,4571.28,4505.13,4701.03,1927,1860,11.607,0,0,0,0
10,3934.87,4124.62,4269.23,4286.15,4574.87,4555.38,4481.03,4458.97,4081.03,4533.33,4940.51,4568.72,4507.18,4708.21,1941,1884,11.615,0,0,0,0
11,3936.41,4123.08,4267.69,4280,4558.97,4555.38,4484.62,4456.41,4075.38,4536.41,4949.74,4570.77,4507.69,4706.15,1954,1906,11.623,0,0,0,0
12,3936.41,4125.13,4260.51,4276.92,4565.13,4557.95,4493.85,4458.97,4082.05,4536.41,4944.62,4568.72,4503.08,4704.1,1964,1924,11.63,0,0,0,0
13,3932.31,4123.08,4254.36,4280.51,4582.05,4554.87,4493.85,4461.54,4086.67,4528.21,4930.26,4557.44,4492.31,4704.1,1974,1931,11.638,0,0,0,0
14,3927.69,4111.79,4248.72,4277.44,4575.38,4554.87,4491.79,4460,4087.69,4523.59,4932.82,4545.13,4489.23,4698.97,1982,1927,11.646,0,0,0,0
15,3927.18,4106.67,4245.13,4276.92,4563.59,4561.03,4488.21,4461.54,4091.28,4522.56,4947.18,4538.46,4493.85,4693.85,1990,1913,11.654,0,0,0,0
16,3929.23,4111.28,4247.69,4283.59,4568.21,4560,4482.56,4472.31,4096.41,4531.28,4950.26,4539.49,4491.79,4696.41,1996,1898,11.662,0,0,0,0
17,3931.79,4109.74,4246.67,4287.18,4580,4542.05,4475.38,4478.97,4092.82,4543.08,4943.59,4543.08,4492.82,4697.95,2005,1885,11.67,0,0,0,0
18,3932.82,4104.62,4240,4287.69,4580,4533.33,4464.1,4461.54,4071.28,4530.26,4933.33,4542.05,4507.18,4690.77,2008,1885,11.677,0,0,0,0
19,3926.15,4107.69,4237.44,4292.31,4577.44,4546.67,4461.03,4438.97,4053.33,4506.15,4932.31,4534.87,4509.74,4683.08,2015,1896,11.685,0,0,0,0
20,3913.33,4110.77,4231.79,4287.69,4582.05,4561.03,4469.74,4442.05,4068.72,4499.49,4921.54,4524.62,4490.26,4671.79,2014,1917,11.699,0,0,0,0
21,3907.18,4109.74,4219.49,4278.46,4580,4566.15,4482.05,4459.49,4097.44,4496.41,4894.87,4518.97,4483.08,4653.33,2014,1937,11.704,0,0,0,0
22,3901.54,4115.38,4215.38,4276.41,4581.03,4567.18,4485.64,4462.56,4109.74,4488.72,4896.92,4521.54,4520.51,4646.67,2010,1939,11.709,0,0,0,0
23,3889.74,4125.64,4218.97,4272.31,4595.9,4569.23,4482.05,4456.92,4121.03,4486.67,4906.67,4518.46,4568.72,4648.72,2003,1927,11.717,0,0,0,0
24,3881.54,4123.08,4217.44,4265.64,4594.36,4567.18,4482.05,4460.51,4123.08,4483.08,4882.05,4509.23,4587.69,4636.41,1999,1901,11.724,0,0,0,0
25,3881.54,4104.62,4213.85,4266.67,4581.54,4560.51,4486.15,4465.13,4094.36,4483.08,4867.69,4503.08,4603.59,4622.56,1992,1872,11.732,0,0,0,0
26,3876.41,4083.59,4209.23,4271.79,4596.41,4558.97,4482.56,4462.05,4067.69,4490.26,4889.74,4495.9,4640.51,4616.92,1987,1851,11.74,0,0,0,0
27,3865.64,4070.26,4201.03,4273.85,4614.87,4562.56,4474.36,4450.26,4064.62,4491.28,4894.36,4489.23,4667.18,4605.13,1980,1841,11.748,0,0,0,0
28,3862.56,4064.62,4200,4276.41,4608.21,4564.1,4475.9,4437.44,4064.1,4489.23,4887.18,4487.18,4688.21,4596.92,1974,1842,11.756,0,0,0,0
29,3861.54,4064.1,4200.51,4278.46,4596.41,4567.18,4476.92,4439.49,4066.15,4496.41,4903.08,4490.77,4732.82,4602.05,1965,1849,11.764,0,0,0,0
30,3863.59,4072.82,4202.56,4277.44,4600.51,4570.26,4476.41,4446.67,4076.92,4504.62,4909.23,4497.44,4789.74,4602.56,1958,1855,11.771,0,0,0,0
31,3864.62,4091.79,4211.79,4278.97,4615.38,4565.13,4477.44,4446.15,4080,4513.33,4903.08,4506.15,4840,4601.54,1947,1854,11.778,0,0,0,0
32,3861.03,4104.62,4218.46,4275.38,4616.92,4565.13,4474.87,4444.62,4076.41,4517.95,4900.51,4505.64,4879.49,4603.08,1936,1849,11.787,0,0,0,0
33,3865.13,4103.59,4217.95,4269.74,4599.49,4571.28,4476.41,4443.08,4080,4514.36,4897.95,4496.41,4903.08,4593.85,1925,1838,11.794,0,0,0,0
34,3865.13,4090.77,4212.82,4267.18,4597.44,4570.26,4477.95,4434.87,4067.69,4506.67,4893.33,4491.28,4905.64,4576.41,1912,1830,11.802,0,0,0,0
35,3853.33,4072.31,4197.95,4267.18,4620,4569.74,4473.85,4424.1,4042.05,4503.08,4890.26,4486.15,4894.87,4569.23,1900,1824,11.81,0,0,0,0
36,3849.23,4061.03,4191.79,4272.31,4627.18,4572.82,4474.87,4420,4034.36,4503.59,4890.77,4477.44,4882.56,4567.69,1889,1821,11.818,0,0,0,0
37,3857.44,4060.51,4195.38,4281.03,4611.79,4571.79,4481.54,4421.54,4026.67,4505.13,4884.62,4474.87,4877.95,4556.92,1877,1818,11.826,0,0,0,0
38,3854.87,4053.33,4195.9,4285.13,4611.28,4568.72,4484.62,4424.1,4004.62,4508.21,4876.92,4475.38,4881.03,4554.87,1867,1813,11.834,0,0,0,0
39,3853.33,4040,4195.38,4283.59,4618.46,4569.23,4486.67,4429.23,4002.05,4508.72,4873.85,4474.87,4876.41,4566.67,1857,1807,11.841,0,0,0,0
40,3858.97,4041.54,4199.49,4282.05,4612.82,4572.31,4490.26,4435.38,4016.92,4510.26,4874.36,4477.95,4863.08,4569.23,1847,1801,11.848,0,0,0,0
41,3862.05,4050.26,4210.26,4284.1,4598.97,4572.82,4492.82,4434.36,4017.44,4518.97,4875.38,4486.15,4846.15,4570.77,1837,1796,11.857,0,0,0,0
42,3861.03,4050.26,4217.44,4286.67,4590.26,4567.69,4490.77,4421.03,4010.26,4524.1,4871.79,4488.72,4818.46,4580.51,1827,1789,11.864,0,0,0,0
43,3857.44,4046.15,4208.72,4286.67,4585.64,4566.15,4485.64,4407.18,4004.1,4508.72,4861.54,4480.51,4774.36,4578.97,1816,1783,11.873,0,0,0,0
44,3855.9,4043.59,4202.56,4285.64,4583.59,4569.23,4483.59,4407.18,4000.51,4490.26,4849.23,4474.87,4728.21,4569.23,1807,1776,11.88,0,0,0,0
45,3856.41,4043.08,4207.18,4286.15,4587.69,4568.21,4484.1,4410.77,3997.95,4494.36,4842.56,4481.03,4692.31,4566.67,1796,1772,11.889,0,0,0,0
46,3858.46,4046.15,4211.79,4291.28,4584.62,4567.69,4487.69,4412.82,3993.85,4504.62,4838.97,4488.21,4658.46,4572.82,1788,1765,11.896,0,0,0,0
47,3860,4051.79,4213.33,4299.49,4577.95,4566.15,4495.9,4421.54,3993.85,4505.64,4844.62,4490.26,4626.15,4582.56,1777,1761,11.904,0,0,0,0
48,3859.49,4053.33,4212.31,4306.15,4588.72,4558.46,4500,4428.21,3993.85,4507.18,4846.67,4488.21,4593.33,4582.05,1771,1759,11.911,0,0,0,0
49,3855.9,4046.67,4203.08,4310.26,4590.26,4558.97,4494.36,4420.51,3988.72,4508.72,4833.85,4479.49,4551.28,4569.74,1765,1756,11.919,0,0,0,0
50,3850.77,4037.95,4196.92,4315.38,4569.74,4570.77,4489.23,4416.92,3986.15,4517.44,4830.77,4473.33,4513.33,4567.18,1761,1755,11.928,0,0,0,0
51,3852.31,4036.92,4203.59,4324.1,4568.21,4572.31,4494.36,4426.67,3981.54,4534.36,4844.1,4481.03,4497.44,4578.97,1757,1751,11.935,0,0,0,0
52,3856.92,4044.1,4209.74,4333.33,4588.21,4564.62,4498.46,4430.77,3962.56,4536.92,4848.21,4489.23,4485.64,4586.15,1754,1748,11.943,0,0,0,0
53,3857.95,4053.85,4206.15,4342.05,4586.15,4569.74,4495.38,4428.21,3950.77,4523.59,4840.51,4486.15,4458.46,4582.56,1751,1742,11.951,0,0,0,0
54,3862.05,4061.54,4207.69,4350.26,4579.49,4583.08,4498.46,4427.69,3966.67,4523.59,4841.54,4486.67,4440.51,4585.64,1748,1733,11.96,0,0,0,0
55,3867.18,4066.67,4214.36,4358.97,4597.44,4587.69,4506.15,4431.28,3981.54,4529.74,4845.64,4491.79,4433.85,4594.87,1745,1732,11.967,0,0,0,0
56,3868.21,4068.21,4210.26,4372.82,4607.69,4585.13,4503.59,4427.69,3975.38,4520.51,4841.54,4491.28,4413.33,4594.36,1743,1732,11.975,0,0,0,0
57,3866.67,4073.33,4205.64,4387.18,4594.87,4583.59,4498.97,4422.05,3972.31,4515.38,4842.05,4489.74,4397.95,4593.33,1742,1731,11.982,0,0,0,0
58,3867.18,4084.1,4215.38,4398.46,4588.72,4584.62,4500.51,4427.18,3988.21,4525.13,4854.36,4492.82,4402.05,4602.05,1740,1731,11.99,0,0,0,0
59,3869.74,4092.82,4219.49,4412.31,4598.46,4585.13,4498.97,4427.18,3994.36,4526.15,4860,4492.82,4401.03,4602.56,1738,1728,11.998,0,0,0,0
60,3870.77,4100,4215.38,4425.13,4604.62,4588.21,4496.41,4420.51,3987.18,4522.05,4855.9,4493.85,4395.38,4601.03,1737,1727,12.006,0,0,0,0
61,3869.74,4102.56,4217.95,4433.85,4601.54,4584.1,4504.1,4426.15,3990.77,4524.62,4860.51,4503.59,4395.9,4608.72,1736,1723,12.014,0,0,0,0
62,3869.74,4099.49,4218.97,4438.97,4600,4572.82,4506.67,4430.77,3990.77,4518.46,4861.03,4505.13,4386.67,4609.23,1735,1724,12.02,0,0,0,0
63,3870.26,4100.51,4212.82,4441.54,4608.21,4567.69,4495.38,4416.92,3976.92,4504.1,4846.67,4494.36,4370.77,4599.49,1735,1722,12.029,0,0,0,0
64,3867.18,4104.1,4209.74,4449.23,4607.18,4571.79,4492.82,4409.23,3970.77,4500.51,4841.54,4490.26,4365.13,4597.44,1733,1723,12.036,0,0,0,0
65,3866.67,4103.59,4214.87,4466.67,4601.54,4572.82,4502.05,4418.46,3977.44,4509.23,4849.23,4498.46,4366.15,4605.64,1733,1724,12.044,0,0,0,0
66,3871.28,4108.72,4221.03,4484.62,4610.77,4570.26,4510.26,4429.74,3989.23,4518.97,4847.69,4505.13,4362.56,4610.26,1731,1724,12.052,0,0,0,0
67,3873.33,4117.95,4225.64,4489.74,4617.95,4574.36,4517.44,4436.41,4002.56,4524.62,4848.21,4507.18,4360,4611.28,1729,1722,12.06,0,0,0,0
68,3873.85,4120.51,4227.69,4488.72,4606.67,4578.46,4520,4433.33,4006.67,4525.13,4858.46,4509.74,4365.13,4615.9,1729,1719,12.067,0,0,0,0
69,3876.92,4119.49,4228.72,4492.82,4601.54,4575.9,4512.31,4425.13,3997.95,4524.62,4861.03,4510.26,4366.67,4618.46,1727,1718,12.076,0,0,0,0
70,3874.87,4121.54,4228.21,4497.95,4613.85,4570.77,4505.64,4429.74,3998.97,4527.18,4856.41,4507.18,4358.97,4611.79,1726,1715,12.084,0,0,0,0
71,3871.28,4124.1,4223.08,4497.95,4618.46,4568.21,4509.23,4435.38,4007.69,4528.72,4855.9,4505.13,4355.38,4607.69,1725,1715,12.092,0,0,0,0
72,3873.33,4127.18,4222.05,4494.36,4614.87,4573.33,4508.72,4424.62,4005.64,4524.1,4855.38,4504.1,4359.49,4610.26,1723,1714,12.099,0,0,0,0
73,3872.31,4124.1,4224.1,4492.82,4614.36,4569.23,4505.13,4420,4002.05,4522.56,4855.38,4502.05,4359.49,4609.23,1721,1715,12.106,0,0,0,0
74,3867.69,4118.46,4222.05,4492.31,4611.28,4555.9,4506.67,4429.74,4005.13,4529.23,4860.51,4503.59,4356.92,4610.26,1722,1714,12.115,0,0,0,0
75,3867.69,4118.97,4216.41,4493.33,4601.54,4560,4506.15,4425.13,4005.13,4529.23,4862.05,4505.64,4359.49,4615.9,1720,1715,12.123,0,0,0,0
76,3872.31,4121.54,4219.49,4496.41,4593.85,4574.87,4506.67,4415.9,4002.56,4527.18,4861.03,4505.64,4367.69,4623.08,1721,1714,12.13,0,0,0,0
77,3876.41,4121.54,4230.26,4500,4604.62,4574.87,4516.41,4426.15,4006.15,4539.49,4871.79,4516.92,4377.95,4632.31,1719,1713,12.138,0,0,0,0
78,3872.82,4120,4229.23,4504.1,4618.97,4570.77,4523.08,4429.23,4004.1,4538.46,4877.95,4521.03,4373.85,4630.77,1719,1713,12.147,0,0,0,0
79,3868.21,4117.44,4223.08,4507.18,4609.23,4573.33,4519.49,4427.18,4008.21,4527.69,4871.79,4511.28,4368.21,4624.62,1718,1711,12.154,0,0,0,0
80,3871.28,4118.46,4227.18,4506.67,4593.85,4569.23,4521.03,4445.13,4022.05,4542.05,4876.41,4515.9,4382.05,4629.74,1717,1712,12.162,0,0,0,0
81,3874.36,4121.03,4234.87,4507.69,4601.03,4567.69,4525.64,4449.23,4016.92,4554.36,4885.13,4524.1,4387.69,4632.82,1718,1711,12.169,0,0,0,0
82,3870.77,4120,4232.31,4512.82,4612.31,4576.92,4521.03,4431.28,4001.03,4536.41,4872.31,4513.85,4370.26,4626.67,1717,1710,12.177,0,0,0,0
83,3868.21,4122.56,4228.72,4514.87,4600.51,4576.41,4520,4428.72,4001.54,4523.08,4857.44,4504.62,4360,4623.59,1717,1708,12.185,0,0,0,0
84,3870.26,4126.15,4229.74,4516.41,4584.1,4569.74,4519.49,4429.23,4001.03,4527.18,4859.49,4507.18,4362.56,4622.56,1716,1708,12.193,0,0,0,0
85,3866.15,4121.03,4226.15,4518.97,4595.38,4572.82,4511.79,4416.41,3987.69,4523.59,4858.97,4503.59,4355.38,4617.44,1716,1708,12.202,0,0,0,0
86,3866.15,4125.13,4227.18,4517.44,4614.87,4576.92,4513.33,4414.87,3991.28,4524.1,4865.64,4504.1,4358.97,4625.64,1715,1710,12.21,0,0,0,0
87,3874.36,4136.41,4235.38,4511.28,4613.33,4577.44,4522.56,4418.46,4000,4532.31,4876.41,4511.28,4371.28,4636.92,1715,1711,12.217,0,0,0,0
88,3868.72,4131.28,4230.77,4506.15,4601.03,4585.13,4523.08,4411.28,3990.26,4528.72,4865.64,4501.54,4361.03,4625.64,1714,1710,12.226,0,0,0,0
89,3863.59,4124.1,4220.51,4508.21,4598.46,4590.26,4521.03,4415.38,3993.85,4531.79,4861.03,4494.87,4353.85,4620.51,1714,1710,12.233,0,0,0,0
90,3868.72,4136.92,4223.59,4511.79,4600.51,4582.56,4522.05,4430.77,4013.33,4543.08,4873.85,4505.64,4365.64,4633.33,1714,1706,12.241,0,0,0,0
91,3868.72,4141.54,4225.64,4507.18,4600.51,4581.54,4523.59,4434.36,4014.87,4541.03,4870.26,4507.69,4364.62,4634.36,1713,1706,12.249,0,0,0,0
92,3861.54,4128.21,4217.95,4505.13,4602.05,4587.18,4521.03,4426.67,4003.59,4532.82,4857.95,4494.36,4351.79,4623.59,1715,1703,12.256,0,0,0,0
93,3857.95,4127.69,4211.79,4514.36,4596.41,4582.56,4510.26,4420.51,4001.54,4532.82,4861.54,4492.82,4352.31,4623.59,1714,1703,12.264,0,0,0,0
94,3864.62,4135.9,4218.46,4519.49,4593.85,4578.46,4505.64,4420,4006.15,4539.49,4869.74,4504.62,4358.46,4630.26,1714,1702,12.273,0,0,0,0
95,3866.67,4138.46,4227.18,4516.92,4606.67,4583.08,4513.85,4417.95,4002.05,4536.41,4869.74,4508.21,4356.92,4630.77,1715,1703,12.28,0,0,0,0
96,3861.54,4138.46,4224.1,4514.36,4610.77,4587.69,4517.95,4411.28,3995.38,4524.62,4861.54,4498.97,4354.87,4631.79,1716,1703,12.287,0,0,0,0
97,3861.03,4137.44,4223.59,4512.82,4597.95,4585.13,4518.97,4413.33,4002.56,4527.18,4863.59,4496.92,4354.87,4633.85,1716,1704,12.295,0,0,0,0
98,3862.05,4143.59,4228.72,4515.9,4595.38,4581.54,4519.49,4422.05,4010.77,4541.54,4874.36,4504.1,4352.82,4633.85,1717,1705,12.303,0,0,0,0
99,3856.92,4152.31,4224.1,4521.03,4606.15,4585.13,4511.28,4416.41,3997.95,4536.92,4867.18,4497.44,4348.21,4628.21,1716,1704,12.311,0,0,0,0
100,3858.46,4145.64,4218.97,4518.46,4604.62,4582.56,4507.69,4413.33,3992.82,4529.23,4857.95,4488.72,4350.26,4626.67,1717,1705,12.319,0,0,0,0
101,3863.59,4134.36,4225.13,4513.33,4594.87,4572.82,4518.46,4428.21,4008.72,4540,4872.31,4496.92,4358.97,4630.26,1718,1703,12.327,0,0,0,0
102,3856.41,4136.92,4224.1,4514.87,4595.38,4572.31,4523.08,4429.74,4009.74,4543.08,4876.41,4501.54,4358.97,4627.18,1718,1705,12.334,0,0,0,0
103,3852.82,4141.03,4214.87,4515.9,4603.59,4575.9,4518.46,4413.85,3995.9,4536.92,4864.1,4490.26,4355.9,4623.08,1719,1706,12.342,0,0,0,0
